Time,Extension,Load
(sec),(mm),(N)
0.00000,0.50613,0.03304
0.05000,0.50520,0.03088
0.10000,0.49747,0.03161
0.15000,0.48733,0.03286
0.20000,0.47733,0.03174
0.25000,0.46787,0.03296
0.30000,0.45867,0.03167
0.35000,0.44973,0.03118
0.40000,0.44093,0.03326
0.45000,0.43227,0.03059
0.50000,0.42373,0.03354
0.55000,0.41507,0.03233
0.60000,0.40667,0.03110
0.65000,0.39840,0.03205
0.70000,0.38973,0.03195
0.75000,0.38133,0.03131
0.80000,0.37320,0.03372
0.85000,0.36480,0.03115
0.90000,0.35627,0.03203
0.95000,0.34813,0.03203
1.00000,0.33987,0.03242
1.05000,0.33133,0.03081
1.10000,0.32320,0.03266
1.15000,0.31493,0.03088
1.20000,0.30653,0.03313
1.25000,0.29813,0.02964
1.30000,0.28973,0.03318
1.35000,0.28133,0.03066
1.40000,0.27307,0.03355
1.45000,0.26453,0.03030
1.50000,0.25627,0.03454
1.55000,0.24813,0.02989
1.60000,0.23947,0.03457
1.65000,0.23120,0.02969
1.70000,0.22320,0.03465
1.75000,0.21480,0.02988
1.80000,0.20613,0.03550
1.85000,0.19813,0.02773
1.90000,0.18987,0.03339
1.95000,0.18120,0.02551
2.00000,0.17293,0.02899
2.05000,0.16467,0.02159
2.10000,0.15600,0.02656
2.15000,0.14773,0.01872
2.20000,0.13960,0.02183
2.25000,0.13120,0.01482
2.30000,0.12293,0.01921
2.35000,0.11453,0.01200
2.40000,0.10627,0.01422
2.45000,0.09813,0.00741
2.50000,0.08947,0.01141
2.55000,0.08120,0.00367
2.60000,0.07320,0.00859
2.65000,0.06467,-0.00124
2.70000,0.05627,0.00250
2.75000,0.04827,-0.00416
2.80000,0.03987,-0.00124
2.85000,0.03107,-0.01054
2.90000,0.02293,-0.00625
2.95000,0.01467,-0.01485
3.00000,0.00613,-0.01158
3.05000,-0.00213,-0.02071
3.10000,-0.01040,-0.01512
3.15000,-0.01880,-0.02850
3.20000,-0.02707,-0.02131
3.25000,-0.03520,-0.03267
3.30000,-0.04347,-0.02735
3.35000,-0.05187,-0.03905
3.40000,-0.06040,-0.03362
3.45000,-0.06867,-0.04288
3.50000,-0.07680,-0.04009
3.55000,-0.08533,-0.04893
3.60000,-0.09387,-0.04588
3.65000,-0.10200,-0.05322
3.70000,-0.11040,-0.05301
3.75000,-0.11893,-0.05746
3.80000,-0.12720,-0.05874
3.85000,-0.13520,-0.06323
3.90000,-0.14387,-0.06342
3.95000,-0.15227,-0.06969
4.00000,-0.16040,-0.06918
4.05000,-0.16867,-0.07415
4.10000,-0.17720,-0.07490
4.15000,-0.18533,-0.07927
4.20000,-0.19347,-0.07994
4.25000,-0.20200,-0.07803
4.30000,-0.21027,-0.10248
4.35000,-0.21853,-0.07375
4.40000,-0.22693,-0.10178
4.45000,-0.23533,-0.08906
4.50000,-0.24373,-0.10042
4.55000,-0.25213,-0.09916
4.60000,-0.26040,-0.10486
4.65000,-0.26880,-0.10463
4.70000,-0.27720,-0.10930
4.75000,-0.28533,-0.11203
4.80000,-0.29373,-0.11346
4.85000,-0.30213,-0.11757
4.90000,-0.31013,-0.12199
4.95000,-0.31853,-0.11740
5.00000,-0.32720,-0.13251
5.05000,-0.33520,-0.12280
5.10000,-0.34333,-0.13523
5.15000,-0.35200,-0.13284
5.20000,-0.36027,-0.13733
5.25000,-0.36853,-0.14131
5.30000,-0.37707,-0.14369
5.35000,-0.38547,-0.14497
5.40000,-0.39373,-0.15164
5.45000,-0.40213,-0.15206
5.50000,-0.41040,-0.15756
5.55000,-0.41893,-0.15674
5.60000,-0.42720,-0.16663
5.65000,-0.43520,-0.16287
5.70000,-0.44373,-0.17503
5.75000,-0.45213,-0.16830
5.80000,-0.46013,-0.18222
5.85000,-0.46853,-0.17726
5.90000,-0.47707,-0.18643
5.95000,-0.48520,-0.18701
6.00000,-0.49360,-0.19310
6.05000,-0.50227,-0.19409
6.10000,-0.51040,-0.20058
6.15000,-0.51867,-0.20102
6.20000,-0.52720,-0.20702
6.25000,-0.53547,-0.20944
6.30000,-0.54373,-0.21272
6.35000,-0.55227,-0.21730
6.40000,-0.56053,-0.21980
6.45000,-0.56880,-0.22352
6.50000,-0.57707,-0.22757
6.55000,-0.58533,-0.22985
6.60000,-0.59373,-0.23445
6.65000,-0.60213,-0.23821
6.70000,-0.61027,-0.23881
6.75000,-0.61867,-0.24741
6.80000,-0.62707,-0.24596
6.85000,-0.63533,-0.25372
6.90000,-0.64373,-0.25376
6.95000,-0.65227,-0.26125
7.00000,-0.66053,-0.26205
7.05000,-0.66867,-0.26640
7.10000,-0.67706,-0.27013
7.15000,-0.68546,-0.27481
7.20000,-0.69360,-0.27677
7.25000,-0.70186,-0.28166
7.30000,-0.71040,-0.28617
7.35000,-0.71853,-0.28965
7.40000,-0.72680,-0.29305
7.45000,-0.73533,-0.29829
7.50000,-0.74360,-0.30013
7.55000,-0.75186,-0.30607
7.60000,-0.76040,-0.31056
7.65000,-0.76866,-0.31414
7.70000,-0.77706,-0.31796
7.75000,-0.78533,-0.32280
7.80000,-0.79360,-0.32512
7.85000,-0.80213,-0.33377
7.90000,-0.81053,-0.33180
7.95000,-0.81866,-0.34257
8.00000,-0.82706,-0.34119
8.05000,-0.83546,-0.35071
8.10000,-0.84346,-0.34865
8.15000,-0.85186,-0.35791
8.20000,-0.86040,-0.35874
8.25000,-0.86853,-0.36751
8.30000,-0.87666,-0.36647
8.35000,-0.88533,-0.37641
8.40000,-0.89373,-0.37666
8.45000,-0.90186,-0.38547
8.50000,-0.91040,-0.38471
8.55000,-0.91880,-0.39532
8.60000,-0.92693,-0.39400
8.65000,-0.93546,-0.40426
8.70000,-0.94373,-0.40348
8.75000,-0.95213,-0.41318
8.80000,-0.96053,-0.41409
8.85000,-0.96853,-0.42165
8.90000,-0.97720,-0.42479
8.95000,-0.98560,-0.43045
9.00000,-0.99346,-0.43387
9.05000,-1.00200,-0.44002
9.10000,-1.01040,-0.44380
9.15000,-1.01840,-0.44982
9.20000,-1.02693,-0.45505
9.25000,-1.03560,-0.46045
9.30000,-1.04386,-0.46594
9.35000,-1.05200,-0.46979
9.40000,-1.06066,-0.47680
9.45000,-1.06880,-0.48069
9.50000,-1.07706,-0.48682
9.55000,-1.08546,-0.49082
9.60000,-1.09386,-0.49849
9.65000,-1.10213,-0.50161
9.70000,-1.11040,-0.50886
9.75000,-1.11866,-0.51308
9.80000,-1.12706,-0.51963
9.85000,-1.13520,-0.52350
9.90000,-1.14346,-0.53040
9.95000,-1.15186,-0.53679
10.00000,-1.16040,-0.54133
10.05000,-1.16866,-0.54753
10.10000,-1.17693,-0.55321
10.15000,-1.18546,-0.55945
10.20000,-1.19373,-0.56497
10.25000,-1.20186,-0.57029
10.30000,-1.21040,-0.57719
10.35000,-1.21893,-0.58271
10.40000,-1.22693,-0.58886
10.45000,-1.23520,-0.59365
10.50000,-1.24373,-0.60050
10.55000,-1.25200,-0.60403
10.60000,-1.26013,-0.60849
10.65000,-1.26866,-0.61179
10.70000,-1.27693,-0.61503
10.75000,-1.28520,-0.61687
10.80000,-1.29360,-0.62442
10.85000,-1.30200,-0.62791
10.90000,-1.31040,-0.63739
10.95000,-1.31880,-0.64267
11.00000,-1.32706,-0.65509
11.05000,-1.33546,-0.65765
11.10000,-1.34386,-0.67198
11.15000,-1.35186,-0.67370
11.20000,-1.36026,-0.68786
11.25000,-1.36880,-0.68959
11.30000,-1.37680,-0.70609
11.35000,-1.38533,-0.70544
11.40000,-1.39386,-0.72383
11.45000,-1.40200,-0.71989
11.50000,-1.41013,-0.73801
11.55000,-1.41893,-0.73976
11.60000,-1.42706,-0.75490
11.65000,-1.43520,-0.75436
11.70000,-1.44373,-0.77064
11.75000,-1.45213,-0.77028
11.80000,-1.46040,-0.78879
11.85000,-1.46880,-0.78842
11.90000,-1.47706,-0.80451
11.95000,-1.48560,-0.80545
12.00000,-1.49373,-0.82209
12.05000,-1.50186,-0.82289
12.10000,-1.51053,-0.83779
12.15000,-1.51880,-0.84158
12.20000,-1.52680,-0.85701
12.25000,-1.53520,-0.85902
12.30000,-1.54373,-0.87417
12.35000,-1.55173,-0.87956
12.40000,-1.56013,-0.89121
12.45000,-1.56880,-0.89800
12.50000,-1.57693,-0.91242
12.55000,-1.58520,-0.91640
12.60000,-1.59386,-0.93147
12.65000,-1.60213,-0.93741
12.70000,-1.61026,-0.95076
12.75000,-1.61880,-0.95801
12.80000,-1.62720,-0.96832
12.85000,-1.63546,-0.97770
12.90000,-1.64373,-0.98981
12.95000,-1.65213,-0.99782
13.00000,-1.66053,-1.00776
13.05000,-1.66866,-1.01853
13.10000,-1.67680,-1.02889
13.15000,-1.68520,-1.03813
13.20000,-1.69373,-1.04855
13.25000,-1.70186,-1.06173
13.30000,-1.71040,-1.07115
13.35000,-1.71893,-1.08322
13.40000,-1.72720,-1.09411
13.45000,-1.73533,-1.10221
13.50000,-1.74373,-1.11861
13.55000,-1.75226,-1.12552
13.60000,-1.76040,-1.14002
13.65000,-1.76866,-1.14868
13.70000,-1.77706,-1.16187
13.75000,-1.78533,-1.17202
13.80000,-1.79360,-1.18573
13.85000,-1.80200,-1.19494
13.90000,-1.81026,-1.20809
13.95000,-1.81853,-1.21749
14.00000,-1.82693,-1.23324
14.05000,-1.83533,-1.24007
14.10000,-1.84373,-1.25691
14.15000,-1.85200,-1.26414
14.20000,-1.86026,-1.28006
14.25000,-1.86880,-1.28880
14.30000,-1.87706,-1.30345
14.35000,-1.88520,-1.31211
14.40000,-1.89373,-1.32637
14.45000,-1.90213,-1.33758
14.50000,-1.91013,-1.35022
14.55000,-1.91866,-1.36024
14.60000,-1.92720,-1.37488
14.65000,-1.93520,-1.38537
14.70000,-1.94346,-1.39749
14.75000,-1.95200,-1.40908
14.80000,-1.96026,-1.42251
14.85000,-1.96853,-1.43418
14.90000,-1.97706,-1.44612
14.95000,-1.98546,-1.46033
15.00000,-1.99386,-1.47084
15.05000,-2.00213,-1.48414
15.10000,-2.01053,-1.49650
15.15000,-2.01893,-1.50867
15.20000,-2.02720,-1.52201
15.25000,-2.03533,-1.53283
15.30000,-2.04386,-1.54573
15.35000,-2.05226,-1.55873
15.40000,-2.06026,-1.57044
15.45000,-2.06866,-1.58152
15.50000,-2.07719,-1.59583
15.55000,-2.08533,-1.60708
15.60000,-2.09359,-1.61991
15.65000,-2.10226,-1.63185
15.70000,-2.11026,-1.64677
15.75000,-2.11866,-1.65425
15.80000,-2.12719,-1.67319
15.85000,-2.13546,-1.67998
15.90000,-2.14386,-1.69741
15.95000,-2.15226,-1.70680
16.00000,-2.16053,-1.72186
16.05000,-2.16866,-1.73074
16.10000,-2.17693,-1.74654
16.15000,-2.18519,-1.75620
16.20000,-2.19359,-1.77150
16.25000,-2.20186,-1.78282
16.30000,-2.20999,-1.79410
16.35000,-2.21853,-1.81045
16.40000,-2.22706,-1.81804
16.45000,-2.23519,-1.83503
16.50000,-2.24373,-1.84389
16.55000,-2.25226,-1.85884
16.60000,-2.26053,-1.84425
16.65000,-2.26866,-1.68297
16.70000,-2.27719,-1.70064
16.75000,-2.28559,-1.73910
16.80000,-2.29359,-1.75451
16.85000,-2.30186,-1.77694
16.90000,-2.31039,-1.79881
16.95000,-2.31866,-1.81262
17.00000,-2.32693,-1.83397
17.05000,-2.33533,-1.84865
17.10000,-2.34359,-1.86662
17.15000,-2.35173,-1.87949
17.20000,-2.36026,-1.90069
17.25000,-2.36879,-1.90980
17.30000,-2.37706,-1.93268
17.35000,-2.38546,-1.94145
17.40000,-2.39373,-1.95964
17.45000,-2.40213,-1.97462
17.50000,-2.41053,-1.98555
17.55000,-2.41866,-2.00310
17.60000,-2.42719,-2.01267
17.65000,-2.43546,-2.03137
17.70000,-2.44346,-2.03937
17.75000,-2.45186,-2.05764
17.80000,-2.46039,-2.06601
17.85000,-2.46839,-2.07360
17.90000,-2.47679,-2.07415
17.95000,-2.48546,-2.07442
18.00000,-2.49359,-2.07932
18.05000,-2.50186,-2.07370
18.10000,-2.51039,-2.08519
18.15000,-2.51879,-2.08694
18.20000,-2.52706,-2.10924
18.25000,-2.53559,-2.11390
18.30000,-2.54386,-2.13264
18.35000,-2.55213,-2.13652
18.40000,-2.56053,-2.15142
18.45000,-2.56853,-2.15229
18.50000,-2.57706,-2.17368
18.55000,-2.58546,-2.16484
18.60000,-2.59346,-2.20663
18.65000,-2.60186,-2.18296
18.70000,-2.61039,-2.22801
18.75000,-2.61839,-2.22054
18.80000,-2.62679,-2.24552
18.85000,-2.63546,-2.25055
18.90000,-2.64373,-2.27073
18.95000,-2.65199,-2.27517
19.00000,-2.66066,-2.29258
19.05000,-2.66893,-2.29969
19.10000,-2.67706,-2.31249
19.15000,-2.68533,-2.32267
19.20000,-2.69373,-2.33366
19.25000,-2.70199,-2.34727
19.30000,-2.71039,-2.35280
19.35000,-2.71866,-2.37102
19.40000,-2.72706,-2.37326
19.45000,-2.73546,-2.39601
19.50000,-2.74359,-2.39609
19.55000,-2.75213,-2.41756
19.60000,-2.76053,-2.42148
19.65000,-2.76866,-2.44470
19.70000,-2.77706,-2.44587
19.75000,-2.78559,-2.46891
19.80000,-2.79373,-2.47002
19.85000,-2.80199,-2.49610
19.90000,-2.81053,-2.49599
19.95000,-2.81893,-2.52422
20.00000,-2.82693,-2.52462
20.05000,-2.83519,-2.54786
20.10000,-2.84373,-2.55340
20.15000,-2.85186,-2.57607
20.20000,-2.86013,-2.57849
20.25000,-2.86866,-2.60294
20.30000,-2.87693,-2.60774
20.35000,-2.88506,-2.62752
20.40000,-2.89359,-2.63405
20.45000,-2.90199,-2.65560
20.50000,-2.91039,-2.66129
20.55000,-2.91879,-2.68152
20.60000,-2.92706,-2.68758
20.65000,-2.93559,-2.70663
20.70000,-2.94373,-2.71383
20.75000,-2.95186,-2.73200
20.80000,-2.96053,-2.74099
20.85000,-2.96879,-2.75346
20.90000,-2.97679,-2.76716
20.95000,-2.98533,-2.77953
21.00000,-2.99386,-2.79155
21.05000,-3.00186,-2.80519
21.10000,-3.01013,-2.81675
21.15000,-3.01866,-2.82984
21.20000,-3.02693,-2.84283
21.25000,-3.03519,-2.85396
21.30000,-3.04373,-2.87042
21.35000,-3.05213,-2.87904
21.40000,-3.06039,-2.89318
21.45000,-3.06866,-2.90767
21.50000,-3.07706,-2.91673
21.55000,-3.08533,-2.93154
21.60000,-3.09373,-2.94215
21.65000,-3.10186,-2.95640
21.70000,-3.11039,-2.96706
21.75000,-3.11879,-2.98106
21.80000,-3.12693,-2.99280
21.85000,-3.13533,-3.00602
21.90000,-3.14373,-3.01662
21.95000,-3.15186,-3.03168
22.00000,-3.16026,-3.03927
22.05000,-3.16879,-3.05744
22.10000,-3.17693,-3.06597
22.15000,-3.18519,-3.08098
22.20000,-3.19386,-3.09072
22.25000,-3.20213,-3.10644
22.30000,-3.21039,-3.11637
22.35000,-3.21879,-3.12907
22.40000,-3.22719,-3.14131
22.45000,-3.23533,-3.15332
22.50000,-3.24373,-3.16493
22.55000,-3.25213,-3.17714
22.60000,-3.26039,-3.18908
22.65000,-3.26866,-3.20235
22.70000,-3.27679,-3.21287
22.75000,-3.28533,-3.22571
22.80000,-3.29386,-3.23806
22.85000,-3.30199,-3.25013
22.90000,-3.31026,-3.25975
22.95000,-3.31893,-3.27310
23.00000,-3.32719,-3.28570
23.05000,-3.33533,-3.29425
23.10000,-3.34373,-3.30863
23.15000,-3.35213,-3.31831
23.20000,-3.36026,-3.33071
23.25000,-3.36866,-3.34133
23.30000,-3.37719,-3.35420
23.35000,-3.38532,-3.36526
23.40000,-3.39359,-3.37773
23.45000,-3.40199,-3.38813
23.50000,-3.41026,-3.39920
23.55000,-3.41852,-3.41137
23.60000,-3.42693,-3.42301
23.65000,-3.43546,-3.43481
23.70000,-3.44372,-3.44755
23.75000,-3.45213,-3.46061
23.80000,-3.46039,-3.47090
23.85000,-3.46892,-3.48395
23.90000,-3.47706,-3.49528
23.95000,-3.48532,-3.50894
24.00000,-3.49386,-3.51788
24.05000,-3.50226,-3.53254
24.10000,-3.51012,-3.54174
24.15000,-3.51852,-3.55508
24.20000,-3.52706,-3.56661
24.25000,-3.53506,-3.58033
24.30000,-3.54332,-3.59036
24.35000,-3.55199,-3.60366
24.40000,-3.56012,-3.61330
24.45000,-3.56839,-3.62756
24.50000,-3.57706,-3.63830
24.55000,-3.58532,-3.65141
24.60000,-3.59372,-3.66210
24.65000,-3.60212,-3.67689
24.70000,-3.61039,-3.68346
24.75000,-3.61879,-3.69871
24.80000,-3.62719,-3.70650
24.85000,-3.63532,-3.72108
24.90000,-3.64386,-3.72931
24.95000,-3.65212,-3.74499
25.00000,-3.66012,-3.75298
25.05000,-3.66866,-3.76572
25.10000,-3.67706,-3.77580
25.15000,-3.68519,-3.78943
25.20000,-3.69359,-3.79886
25.25000,-3.70226,-3.80677
25.30000,-3.71039,-3.82844
25.35000,-3.71866,-3.82544
25.40000,-3.72719,-3.84822
25.45000,-3.73546,-3.85245
25.50000,-3.74359,-3.86892
25.55000,-3.75212,-3.87188
25.60000,-3.76052,-3.89234
25.65000,-3.76879,-3.89188
25.70000,-3.77706,-3.91362
25.75000,-3.78532,-3.90885
25.80000,-3.79372,-3.93870
25.85000,-3.80199,-3.92595
25.90000,-3.81012,-3.96189
25.95000,-3.81866,-3.94621
26.00000,-3.82719,-3.97941
26.05000,-3.83532,-3.97494
26.10000,-3.84372,-3.99474
26.15000,-3.85226,-3.99654
26.20000,-3.86052,-4.01527
26.25000,-3.86866,-4.01784
26.30000,-3.87719,-4.03445
26.35000,-3.88546,-4.03943
26.40000,-3.89359,-4.05113
26.45000,-3.90199,-4.06420
26.50000,-3.91052,-4.06760
26.55000,-3.91866,-4.08460
26.60000,-3.92679,-4.08894
26.65000,-3.93532,-4.10230
26.70000,-3.94346,-4.10619
26.75000,-3.95186,-4.12366
26.80000,-3.96026,-4.12586
26.85000,-3.96866,-4.14332
26.90000,-3.97706,-4.14665
26.95000,-3.98532,-4.16060
27.00000,-3.99372,-4.16985
27.05000,-4.00212,-4.17899
27.10000,-4.01039,-4.18817
27.15000,-4.01852,-4.19860
27.20000,-4.02719,-4.20790
27.25000,-4.03546,-4.21544
27.30000,-4.04346,-4.22849
27.35000,-4.05199,-4.23218
27.40000,-4.06052,-4.24968
27.45000,-4.06839,-4.24826
27.50000,-4.07679,-4.26804
27.55000,-4.08532,-4.26574
27.60000,-4.09359,-4.28920
27.65000,-4.10186,-4.28258
27.70000,-4.11039,-4.30670
27.75000,-4.11879,-4.30324
27.80000,-4.12706,-4.32148
27.85000,-4.13546,-4.32234
27.90000,-4.14372,-4.33922
27.95000,-4.15212,-4.33839
28.00000,-4.16052,-4.35840
28.05000,-4.16852,-4.35487
28.10000,-4.17706,-4.37621
28.15000,-4.18546,-4.37283
28.20000,-4.19346,-4.39080
28.25000,-4.20199,-4.38884
28.30000,-4.21039,-4.40678
28.35000,-4.21852,-4.40667
28.40000,-4.22692,-4.42124
28.45000,-4.23559,-4.42447
28.50000,-4.24372,-4.43945
28.55000,-4.25199,-4.43952
28.60000,-4.26052,-4.45395
28.65000,-4.26879,-4.45676
28.70000,-4.27706,-4.46875
28.75000,-4.28546,-4.47204
28.80000,-4.29386,-4.48331
28.85000,-4.30212,-4.48669
28.90000,-4.31039,-4.49652
28.95000,-4.31866,-4.49980
29.00000,-4.32719,-4.50944
29.05000,-4.33532,-4.51324
29.10000,-4.34359,-4.52258
29.15000,-4.35212,-4.52551
29.20000,-4.36039,-4.53662
29.25000,-4.36866,-4.54028
29.30000,-4.37706,-4.54893
29.35000,-4.38559,-4.55321
29.40000,-4.39386,-4.56504
29.45000,-4.40199,-4.56565
29.50000,-4.41052,-4.57590
29.55000,-4.41892,-4.58187
29.60000,-4.42706,-4.58929
29.65000,-4.43532,-4.59367
29.70000,-4.44372,-4.60252
29.75000,-4.45186,-4.60707
29.80000,-4.46012,-4.61504
29.85000,-4.46866,-4.61883
29.90000,-4.47692,-4.62848
29.95000,-4.48506,-4.63276
30.00000,-4.49359,-4.64203
30.05000,-4.50212,-4.64677
30.10000,-4.51039,-4.65494
30.15000,-4.51879,-4.66201
30.20000,-4.52706,-4.66734
30.25000,-4.53559,-4.67333
30.30000,-4.54372,-4.68129
30.35000,-4.55199,-4.68587
30.40000,-4.56052,-4.69261
30.45000,-4.56879,-4.69941
30.50000,-4.57679,-4.70535
30.55000,-4.58532,-4.71108
30.60000,-4.59386,-4.71750
30.65000,-4.60172,-4.72398
30.70000,-4.60999,-4.72833
30.75000,-4.61866,-4.73665
30.80000,-4.62692,-4.74214
30.85000,-4.63519,-4.74938
30.90000,-4.64372,-4.75594
30.95000,-4.65212,-4.76143
31.00000,-4.66026,-4.76750
31.05000,-4.66879,-4.77485
31.10000,-4.67692,-4.77934
31.15000,-4.68532,-4.78633
31.20000,-4.69372,-4.79102
31.25000,-4.70186,-4.79937
31.30000,-4.71052,-4.80337
31.35000,-4.71879,-4.81008
31.40000,-4.72679,-4.81697
31.45000,-4.73519,-4.81934
31.50000,-4.74372,-4.82871
31.55000,-4.75186,-4.83154
31.60000,-4.76026,-4.83951
31.65000,-4.76906,-4.84314
31.70000,-4.77706,-4.85178
31.75000,-4.78532,-4.85403
31.80000,-4.79399,-4.86090
31.85000,-4.80212,-4.86591
31.90000,-4.81039,-4.87199
31.95000,-4.81879,-4.87527
32.00000,-4.82719,-4.88324
32.05000,-4.83532,-4.88527
32.10000,-4.84372,-4.89236
32.15000,-4.85199,-4.89546
32.20000,-4.86039,-4.90205
32.25000,-4.86865,-4.90576
32.30000,-4.87679,-4.91165
32.35000,-4.88532,-4.91422
32.40000,-4.89385,-4.92186
32.45000,-4.90199,-4.92507
32.50000,-4.91039,-4.93029
32.55000,-4.91892,-4.93385
32.60000,-4.92705,-4.94035
32.65000,-4.93532,-4.94264
32.70000,-4.94372,-4.94753
32.75000,-4.95212,-4.95123
32.80000,-4.96025,-4.95617
32.85000,-4.96852,-4.95823
32.90000,-4.97705,-4.96360
32.95000,-4.98532,-4.96724
33.00000,-4.99345,-4.97148
33.05000,-5.00199,-4.97479
33.10000,-5.01012,-4.97904
33.15000,-5.01852,-4.98370
33.20000,-5.02692,-4.98759
33.25000,-5.03532,-4.99277
33.30000,-5.04372,-4.99673
33.35000,-5.05199,-5.00186
33.40000,-5.06039,-5.00503
33.45000,-5.06879,-5.00974
33.50000,-5.07705,-5.01479
33.55000,-5.08519,-5.01736
33.60000,-5.09372,-5.02219
33.65000,-5.10212,-5.02698
33.70000,-5.11012,-5.02840
33.75000,-5.11852,-5.03270
33.80000,-5.12705,-5.03585
33.85000,-5.13519,-5.03966
33.90000,-5.14345,-5.04195
33.95000,-5.15212,-5.04688
34.00000,-5.16025,-5.05169
34.05000,-5.16865,-5.05468
34.10000,-5.17719,-5.05938
34.15000,-5.18545,-5.06420
34.20000,-5.19372,-5.06742
34.25000,-5.20212,-5.07200
34.30000,-5.21039,-5.07560
34.35000,-5.21892,-5.08046
34.40000,-5.22719,-5.08446
34.45000,-5.23519,-5.08738
34.50000,-5.24372,-5.09076
34.55000,-5.25199,-5.09520
34.60000,-5.26012,-5.09855
34.65000,-5.26852,-5.10131
34.70000,-5.27705,-5.10709
34.75000,-5.28519,-5.11072
34.80000,-5.29359,-5.11385
34.85000,-5.30225,-5.11910
34.90000,-5.31039,-5.12442
34.95000,-5.31865,-5.12620
35.00000,-5.32719,-5.13036
35.05000,-5.33545,-5.13549
35.10000,-5.34359,-5.13756
35.15000,-5.35212,-5.14148
35.20000,-5.36052,-5.14522
35.25000,-5.36879,-5.15003
35.30000,-5.37705,-5.15321
35.35000,-5.38545,-5.15773
35.40000,-5.39372,-5.16061
35.45000,-5.40199,-5.16435
35.50000,-5.41012,-5.16757
35.55000,-5.41865,-5.16968
35.60000,-5.42719,-5.17505
35.65000,-5.43532,-5.17843
35.70000,-5.44359,-5.18193
35.75000,-5.45212,-5.18444
35.80000,-5.46052,-5.19097
35.85000,-5.46865,-5.19184
35.90000,-5.47705,-5.19569
35.95000,-5.48559,-5.19986
36.00000,-5.49372,-5.20211
36.05000,-5.50199,-5.20593
36.10000,-5.51052,-5.20834
36.15000,-5.51865,-5.21160
