Time,Extension,Load
(sec),(mm),(N)
0.00000,-0.00013,-0.00015
0.05000,-0.00093,-0.00021
0.10000,-0.00467,-0.00027
0.15000,-0.01293,-0.00120
0.20000,-0.02387,-0.00012
0.25000,-0.03453,0.00002
0.30000,-0.04440,0.00000
0.35000,-0.05427,0.00000
0.40000,-0.06360,-0.00022
0.45000,-0.07267,-0.00137
0.50000,-0.08173,0.00046
0.55000,-0.09053,-0.00033
0.60000,-0.09920,-0.00062
0.65000,-0.10787,-0.00046
0.70000,-0.11640,-0.00014
0.75000,-0.12493,-0.00168
0.80000,-0.13333,0.00055
0.85000,-0.14173,-0.00247
0.90000,-0.15027,0.00069
0.95000,-0.15853,-0.00201
1.00000,-0.16653,-0.00066
1.05000,-0.17507,-0.00163
1.10000,-0.18347,-0.00090
1.15000,-0.19147,-0.00173
1.20000,-0.19973,-0.00118
1.25000,-0.20853,-0.00086
1.30000,-0.21680,-0.00241
1.35000,-0.22507,-0.00100
1.40000,-0.23373,-0.00146
1.45000,-0.24213,-0.00175
1.50000,-0.25040,-0.00203
1.55000,-0.25880,-0.00096
1.60000,-0.26720,-0.00250
1.65000,-0.27533,-0.00214
1.70000,-0.28373,-0.00192
1.75000,-0.29187,-0.00182
1.80000,-0.30040,-0.00315
1.85000,-0.30867,-0.00149
1.90000,-0.31680,-0.00302
1.95000,-0.32533,-0.00187
2.00000,-0.33360,-0.00373
2.05000,-0.34173,-0.00136
2.10000,-0.35013,-0.00408
2.15000,-0.35880,-0.00220
2.20000,-0.36693,-0.00385
2.25000,-0.37520,-0.00171
2.30000,-0.38373,-0.00398
2.35000,-0.39187,-0.00249
2.40000,-0.40013,-0.00439
2.45000,-0.40853,-0.00258
2.50000,-0.41693,-0.00446
2.55000,-0.42520,-0.00276
2.60000,-0.43360,-0.00497
2.65000,-0.44187,-0.00238
2.70000,-0.45013,-0.00529
2.75000,-0.45853,-0.00322
2.80000,-0.46667,-0.00478
2.85000,-0.47520,-0.00305
2.90000,-0.48360,-0.00536
2.95000,-0.49173,-0.00434
3.00000,-0.50027,-0.00537
3.05000,-0.50867,-0.00484
3.10000,-0.51680,-0.00617
3.15000,-0.52520,-0.00528
3.20000,-0.53387,-0.00604
3.25000,-0.54187,-0.00579
3.30000,-0.55000,-0.00748
3.35000,-0.55840,-0.00607
3.40000,-0.56667,-0.00696
3.45000,-0.57493,-0.00754
3.50000,-0.58347,-0.00787
3.55000,-0.59187,-0.00800
3.60000,-0.60000,-0.00858
3.65000,-0.60840,-0.00894
3.70000,-0.61680,-0.00997
3.75000,-0.62533,-0.01000
3.80000,-0.63373,-0.01066
3.85000,-0.64200,-0.01189
3.90000,-0.65027,-0.01120
3.95000,-0.65867,-0.01330
4.00000,-0.66693,-0.01334
4.05000,-0.67520,-0.01576
4.10000,-0.68373,-0.01484
4.15000,-0.69200,-0.01702
4.20000,-0.70000,-0.01683
4.25000,-0.70853,-0.01995
4.30000,-0.71680,-0.01846
4.35000,-0.72493,-0.02146
4.40000,-0.73333,-0.02216
4.45000,-0.74200,-0.02437
4.50000,-0.75013,-0.02493
4.55000,-0.75853,-0.02739
4.60000,-0.76706,-0.02831
4.65000,-0.77533,-0.03168
4.70000,-0.78360,-0.03215
4.75000,-0.79213,-0.03707
4.80000,-0.80040,-0.03641
4.85000,-0.80880,-0.04299
4.90000,-0.81706,-0.04282
4.95000,-0.82520,-0.04731
5.00000,-0.83373,-0.04913
5.05000,-0.84186,-0.05484
5.10000,-0.85013,-0.05532
5.15000,-0.85866,-0.06124
5.20000,-0.86693,-0.06277
5.25000,-0.87506,-0.06807
5.30000,-0.88360,-0.07125
5.35000,-0.89200,-0.07679
5.40000,-0.90013,-0.07963
5.45000,-0.90853,-0.08417
5.50000,-0.91720,-0.08811
5.55000,-0.92533,-0.09320
5.60000,-0.93373,-0.09588
5.65000,-0.94213,-0.10182
5.70000,-0.95040,-0.10528
5.75000,-0.95866,-0.11093
5.80000,-0.96693,-0.11380
5.85000,-0.97520,-0.11925
5.90000,-0.98360,-0.12342
5.95000,-0.99186,-0.12854
6.00000,-1.00000,-0.13265
6.05000,-1.00853,-0.13827
6.10000,-1.01693,-0.14292
6.15000,-1.02506,-0.14844
6.20000,-1.03360,-0.15184
6.25000,-1.04200,-0.15915
6.30000,-1.05013,-0.16246
6.35000,-1.05840,-0.16789
6.40000,-1.06706,-0.17299
6.45000,-1.07520,-0.17918
6.50000,-1.08346,-0.18390
6.55000,-1.09186,-0.18886
6.60000,-1.10026,-0.19540
6.65000,-1.10853,-0.20077
6.70000,-1.11666,-0.20569
6.75000,-1.12506,-0.21161
6.80000,-1.13333,-0.21730
6.85000,-1.14173,-0.22317
6.90000,-1.15013,-0.22892
6.95000,-1.15853,-0.23591
7.00000,-1.16693,-0.24223
7.05000,-1.17520,-0.24829
7.10000,-1.18360,-0.25465
7.15000,-1.19200,-0.26161
7.20000,-1.20026,-0.26917
7.25000,-1.20853,-0.27515
7.30000,-1.21706,-0.28330
7.35000,-1.22506,-0.29080
7.40000,-1.23320,-0.29690
7.45000,-1.24186,-0.30654
7.50000,-1.25026,-0.31160
7.55000,-1.25840,-0.32246
7.60000,-1.26680,-0.32765
7.65000,-1.27546,-0.33730
7.70000,-1.28360,-0.34433
7.75000,-1.29186,-0.35381
7.80000,-1.30040,-0.36023
7.85000,-1.30866,-0.37007
7.90000,-1.31693,-0.37686
7.95000,-1.32533,-0.38656
8.00000,-1.33373,-0.39312
8.05000,-1.34213,-0.40290
8.10000,-1.35040,-0.41029
8.15000,-1.35853,-0.41931
8.20000,-1.36693,-0.42636
8.25000,-1.37520,-0.43682
8.30000,-1.38333,-0.44350
8.35000,-1.39200,-0.45317
8.40000,-1.40026,-0.46116
8.45000,-1.40840,-0.47073
8.50000,-1.41693,-0.47875
8.55000,-1.42546,-0.48839
8.60000,-1.43360,-0.49724
8.65000,-1.44186,-0.50558
8.70000,-1.45053,-0.51376
8.75000,-1.45853,-0.52488
8.80000,-1.46693,-0.53113
8.85000,-1.47546,-0.54155
8.90000,-1.48360,-0.54954
8.95000,-1.49186,-0.56016
9.00000,-1.50026,-0.56702
9.05000,-1.50853,-0.57852
9.10000,-1.51693,-0.58539
9.15000,-1.52520,-0.59715
9.20000,-1.53333,-0.60453
9.25000,-1.54186,-0.61498
9.30000,-1.55026,-0.62424
9.35000,-1.55840,-0.63490
9.40000,-1.56680,-0.64295
9.45000,-1.57546,-0.65483
9.50000,-1.58346,-0.66074
9.55000,-1.59186,-0.67900
9.60000,-1.60040,-0.67679
9.65000,-1.60853,-0.69849
9.70000,-1.61680,-0.69994
9.75000,-1.62520,-0.71525
9.80000,-1.63346,-0.72047
9.85000,-1.64160,-0.73511
9.90000,-1.65000,-0.74043
9.95000,-1.65840,-0.75479
10.00000,-1.66666,-0.76005
10.05000,-1.67506,-0.77525
10.10000,-1.68346,-0.78017
10.15000,-1.69200,-0.79460
10.20000,-1.70040,-0.80253
10.25000,-1.70853,-0.81319
10.30000,-1.71693,-0.82364
10.35000,-1.72546,-0.83360
10.40000,-1.73360,-0.84413
10.45000,-1.74186,-0.85339
10.50000,-1.75040,-0.86580
10.55000,-1.75853,-0.87483
10.60000,-1.76680,-0.88556
10.65000,-1.77520,-0.89559
10.70000,-1.78360,-0.90849
10.75000,-1.79160,-0.91497
10.80000,-1.79986,-0.92936
10.85000,-1.80853,-0.93734
10.90000,-1.81680,-0.95012
10.95000,-1.82506,-0.96030
11.00000,-1.83360,-0.97209
11.05000,-1.84200,-0.98195
11.10000,-1.85026,-0.99365
11.15000,-1.85866,-1.00380
11.20000,-1.86706,-1.01646
11.25000,-1.87533,-1.02501
11.30000,-1.88373,-1.03870
11.35000,-1.89173,-1.04593
11.40000,-1.90026,-1.05892
11.45000,-1.90853,-1.07114
11.50000,-1.91666,-1.07877
11.55000,-1.92533,-1.09084
11.60000,-1.93360,-1.10449
11.65000,-1.94173,-1.11197
11.70000,-1.95026,-1.12373
11.75000,-1.95880,-1.13698
11.80000,-1.96693,-1.14615
11.85000,-1.97520,-1.15576
11.90000,-1.98386,-1.16876
11.95000,-1.99200,-1.17874
12.00000,-2.00026,-1.18844
12.05000,-2.00880,-1.20229
12.10000,-2.01706,-1.20967
12.15000,-2.02520,-1.22225
12.20000,-2.03359,-1.23403
12.25000,-2.04186,-1.24227
12.30000,-2.05026,-1.25590
12.35000,-2.05866,-1.26488
12.40000,-2.06666,-1.27866
12.45000,-2.07520,-1.28539
12.50000,-2.08359,-1.29919
12.55000,-2.09173,-1.31147
12.60000,-2.10026,-1.31995
12.65000,-2.10879,-1.33218
12.70000,-2.11679,-1.34301
12.75000,-2.12519,-1.35465
12.80000,-2.13373,-1.36451
12.85000,-2.14186,-1.37731
12.90000,-2.15013,-1.38631
12.95000,-2.15853,-1.39797
13.00000,-2.16693,-1.40951
13.05000,-2.17506,-1.41947
13.10000,-2.18346,-1.43006
13.15000,-2.19173,-1.44253
13.20000,-2.19999,-1.45210
13.25000,-2.20839,-1.46351
13.30000,-2.21666,-1.47424
13.35000,-2.22519,-1.48639
13.40000,-2.23359,-1.49726
13.45000,-2.24173,-1.50802
13.50000,-2.25013,-1.51911
13.55000,-2.25879,-1.53174
13.60000,-2.26693,-1.54029
13.65000,-2.27519,-1.55316
13.70000,-2.28373,-1.56347
13.75000,-2.29186,-1.57477
13.80000,-2.29999,-1.58377
13.85000,-2.30853,-1.59668
13.90000,-2.31693,-1.60734
13.95000,-2.32506,-1.61710
14.00000,-2.33333,-1.62828
14.05000,-2.34199,-1.63990
14.10000,-2.35026,-1.64990
14.15000,-2.35853,-1.66097
14.20000,-2.36706,-1.67222
14.25000,-2.37546,-1.68351
14.30000,-2.38359,-1.69179
14.35000,-2.39199,-1.70427
14.40000,-2.40039,-1.71459
14.45000,-2.40866,-1.72420
14.50000,-2.41706,-1.73461
14.55000,-2.42519,-1.74550
14.60000,-2.43386,-1.75703
14.65000,-2.44199,-1.76710
14.70000,-2.44999,-1.77583
14.75000,-2.45866,-1.78826
14.80000,-2.46693,-1.79819
14.85000,-2.47493,-1.80850
14.90000,-2.48346,-1.81493
14.95000,-2.49213,-1.83031
15.00000,-2.50026,-1.83623
15.05000,-2.50853,-1.85021
15.10000,-2.51719,-1.85449
15.15000,-2.52533,-1.87347
15.20000,-2.53359,-1.87545
15.25000,-2.54199,-1.89227
15.30000,-2.55026,-1.89785
15.35000,-2.55839,-1.91462
15.40000,-2.56666,-1.91790
15.45000,-2.57506,-1.93448
15.50000,-2.58359,-1.94266
15.55000,-2.59199,-1.95797
15.60000,-2.59999,-1.96260
15.65000,-2.60853,-1.97667
15.70000,-2.61693,-1.98620
15.75000,-2.62506,-1.99797
15.80000,-2.63359,-2.00607
15.85000,-2.64213,-2.01949
15.90000,-2.65026,-2.02803
15.95000,-2.65853,-2.03826
16.00000,-2.66719,-2.04993
16.05000,-2.67533,-2.05832
16.10000,-2.68346,-2.07076
16.15000,-2.69186,-2.07916
16.20000,-2.70026,-2.09153
16.25000,-2.70839,-2.10016
16.30000,-2.71666,-2.11193
16.35000,-2.72506,-2.12143
16.40000,-2.73346,-2.13138
16.45000,-2.74173,-2.14014
16.50000,-2.75013,-2.15234
16.55000,-2.75866,-2.15870
16.60000,-2.76693,-2.16997
16.65000,-2.77519,-2.17272
16.70000,-2.78359,-2.18141
16.75000,-2.79199,-2.19032
16.80000,-2.80026,-2.18921
16.85000,-2.80853,-2.17290
16.90000,-2.81706,-2.18708
16.95000,-2.82533,-2.20200
17.00000,-2.83346,-2.21517
17.05000,-2.84186,-2.22850
17.10000,-2.85026,-2.24306
17.15000,-2.85839,-2.25318
17.20000,-2.86666,-2.26613
17.25000,-2.87519,-2.27816
17.30000,-2.88346,-2.29029
17.35000,-2.89186,-2.30203
17.40000,-2.90026,-2.31332
17.45000,-2.90866,-2.32448
17.50000,-2.91693,-2.33993
17.55000,-2.92533,-2.34664
17.60000,-2.93373,-2.35931
17.65000,-2.94199,-2.37178
17.70000,-2.95039,-2.38317
17.75000,-2.95839,-2.39175
17.80000,-2.96693,-2.40459
17.85000,-2.97519,-2.41598
17.90000,-2.98319,-2.42633
17.95000,-2.99186,-2.43698
18.00000,-3.00026,-2.44868
18.05000,-3.00826,-2.46033
18.10000,-3.01679,-2.47080
18.15000,-3.02546,-2.48110
18.20000,-3.03346,-2.49297
18.25000,-3.04186,-2.50498
18.30000,-3.05039,-2.51347
18.35000,-3.05866,-2.52375
18.40000,-3.06679,-2.53647
18.45000,-3.07533,-2.54743
18.50000,-3.08373,-2.55415
18.55000,-3.09199,-2.56949
18.60000,-3.10026,-2.57800
18.65000,-3.10853,-2.58917
18.70000,-3.11706,-2.59781
18.75000,-3.12519,-2.61040
18.80000,-3.13333,-2.61932
18.85000,-3.14199,-2.63058
18.90000,-3.15039,-2.63796
18.95000,-3.15853,-2.65510
19.00000,-3.16693,-2.65917
19.05000,-3.17546,-2.67230
19.10000,-3.18359,-2.68068
19.15000,-3.19186,-2.69476
19.20000,-3.20039,-2.69865
19.25000,-3.20853,-2.71489
19.30000,-3.21666,-2.71845
19.35000,-3.22506,-2.73268
19.40000,-3.23346,-2.73948
19.45000,-3.24173,-2.75232
19.50000,-3.25013,-2.75938
19.55000,-3.25839,-2.77194
19.60000,-3.26679,-2.78160
19.65000,-3.27506,-2.78838
19.70000,-3.28346,-2.80106
19.75000,-3.29186,-2.81037
19.80000,-3.30026,-2.81991
19.85000,-3.30853,-2.82870
19.90000,-3.31679,-2.83998
19.95000,-3.32533,-2.84869
20.00000,-3.33359,-2.85894
20.05000,-3.34186,-2.86709
20.10000,-3.35039,-2.87940
20.15000,-3.35853,-2.88564
20.20000,-3.36666,-2.89517
20.25000,-3.37519,-2.90802
20.30000,-3.38373,-2.90990
20.35000,-3.39173,-2.92821
20.40000,-3.39999,-2.92888
20.45000,-3.40852,-2.94465
20.50000,-3.41679,-2.95004
20.55000,-3.42519,-2.96402
20.60000,-3.43372,-2.96967
20.65000,-3.44199,-2.98148
20.70000,-3.45026,-2.98880
20.75000,-3.45866,-3.00209
20.80000,-3.46692,-3.00740
20.85000,-3.47546,-3.01782
20.90000,-3.48372,-3.02809
20.95000,-3.49186,-3.03549
21.00000,-3.50052,-3.04551
21.05000,-3.50866,-3.05393
21.10000,-3.51666,-3.06561
21.15000,-3.52519,-3.06989
21.20000,-3.53359,-3.08352
21.25000,-3.54159,-3.08832
21.30000,-3.55026,-3.10050
21.35000,-3.55879,-3.10587
21.40000,-3.56692,-3.11864
21.45000,-3.57519,-3.12284
21.50000,-3.58386,-3.13520
21.55000,-3.59199,-3.14093
21.60000,-3.60026,-3.15256
21.65000,-3.60866,-3.15861
21.70000,-3.61706,-3.16933
21.75000,-3.62519,-3.17554
21.80000,-3.63346,-3.18613
21.85000,-3.64172,-3.19203
21.90000,-3.65012,-3.20513
21.95000,-3.65839,-3.20425
22.00000,-3.66652,-3.22475
22.05000,-3.67519,-3.22081
22.10000,-3.68359,-3.24157
22.15000,-3.69172,-3.23959
22.20000,-3.70012,-3.25706
22.25000,-3.70866,-3.25527
22.30000,-3.71679,-3.27433
22.35000,-3.72506,-3.27089
22.40000,-3.73359,-3.28748
22.45000,-3.74199,-3.27722
22.50000,-3.75012,-3.27729
22.55000,-3.75852,-3.28452
22.60000,-3.76692,-3.29711
22.65000,-3.77506,-3.30712
22.70000,-3.78332,-3.31324
22.75000,-3.79172,-3.32632
22.80000,-3.79999,-3.32997
22.85000,-3.80826,-3.34058
22.90000,-3.81679,-3.34405
22.95000,-3.82519,-3.35740
23.00000,-3.83359,-3.35988
23.05000,-3.84186,-3.37688
23.10000,-3.85039,-3.37145
23.15000,-3.85879,-3.39095
23.20000,-3.86679,-3.32324
23.25000,-3.87506,-3.33399
23.30000,-3.88359,-3.34162
23.35000,-3.89186,-3.36422
23.40000,-3.89999,-3.36329
23.45000,-3.90852,-3.38456
23.50000,-3.91706,-3.38709
23.55000,-3.92506,-3.40169
23.60000,-3.93332,-3.40588
23.65000,-3.94199,-3.42058
23.70000,-3.95026,-3.42600
23.75000,-3.95852,-3.43457
23.80000,-3.96706,-3.44392
23.85000,-3.97532,-3.44914
23.90000,-3.98359,-3.45988
23.95000,-3.99199,-3.46369
24.00000,-4.00039,-3.47585
24.05000,-4.00879,-3.48011
24.10000,-4.01706,-3.49338
24.15000,-4.02506,-3.49198
24.20000,-4.03359,-3.51022
24.25000,-4.04186,-3.50772
24.30000,-4.04999,-3.52485
24.35000,-4.05866,-3.52128
24.40000,-4.06692,-3.54208
24.45000,-4.07492,-3.53575
24.50000,-4.08346,-3.55669
24.55000,-4.09212,-3.55249
24.60000,-4.10026,-3.57074
24.65000,-4.10852,-3.56717
24.70000,-4.11719,-3.58556
24.75000,-4.12532,-3.58014
24.80000,-4.13359,-3.60184
24.85000,-4.14199,-3.59386
24.90000,-4.15039,-3.61399
24.95000,-4.15866,-3.61061
25.00000,-4.16692,-3.62395
25.05000,-4.17519,-3.62741
25.10000,-4.18372,-3.62946
25.15000,-4.19199,-3.63061
25.20000,-4.19999,-3.64182
25.25000,-4.20852,-3.64557
25.30000,-4.21692,-3.65221
25.35000,-4.22506,-3.66460
25.40000,-4.23359,-3.66255
25.45000,-4.24212,-3.67917
25.50000,-4.25012,-3.67783
25.55000,-4.25839,-3.69080
25.60000,-4.26706,-3.69079
25.65000,-4.27532,-3.70374
25.70000,-4.28346,-3.70312
25.75000,-4.29186,-3.71557
25.80000,-4.30026,-3.71664
25.85000,-4.30839,-3.72751
25.90000,-4.31679,-3.72873
25.95000,-4.32506,-3.73932
26.00000,-4.33346,-3.74276
26.05000,-4.34172,-3.75147
26.10000,-4.35012,-3.75512
26.15000,-4.35852,-3.76559
26.20000,-4.36692,-3.76939
26.25000,-4.37519,-3.77693
26.30000,-4.38346,-3.78138
26.35000,-4.39199,-3.78897
26.40000,-4.40012,-3.79404
26.45000,-4.40852,-3.80237
26.50000,-4.41706,-3.80329
26.55000,-4.42532,-3.81684
26.60000,-4.43346,-3.81506
26.65000,-4.44186,-3.82482
26.70000,-4.45026,-3.82677
26.75000,-4.45839,-3.83584
26.80000,-4.46666,-3.83500
26.85000,-4.47519,-3.84605
26.90000,-4.48359,-3.84904
26.95000,-4.49172,-3.85671
27.00000,-4.50039,-3.86057
27.05000,-4.50866,-3.86788
27.10000,-4.51706,-3.87220
27.15000,-4.52546,-3.88102
27.20000,-4.53372,-3.88096
27.25000,-4.54199,-3.89098
27.30000,-4.55026,-3.89311
27.35000,-4.55839,-3.90049
27.40000,-4.56719,-3.90536
27.45000,-4.57532,-3.90782
27.50000,-4.58346,-3.91787
27.55000,-4.59199,-3.91528
27.60000,-4.60039,-3.92825
27.65000,-4.60839,-3.92285
27.70000,-4.61692,-3.93749
27.75000,-4.62532,-3.93557
27.80000,-4.63359,-3.94674
27.85000,-4.64186,-3.94446
27.90000,-4.65039,-3.95810
27.95000,-4.65879,-3.95405
28.00000,-4.66706,-3.96812
28.05000,-4.67546,-3.96321
28.10000,-4.68359,-3.97785
28.15000,-4.69186,-3.97122
28.20000,-4.70026,-3.98616
28.25000,-4.70839,-3.98202
28.30000,-4.71679,-3.99268
28.35000,-4.72506,-3.99235
28.40000,-4.73319,-4.00343
28.45000,-4.74185,-4.00063
28.50000,-4.75026,-4.01232
28.55000,-4.75839,-4.01148
28.60000,-4.76692,-4.01919
28.65000,-4.77546,-4.02054
28.70000,-4.78359,-4.02734
28.75000,-4.79185,-4.02832
28.80000,-4.80039,-4.03453
28.85000,-4.80866,-4.03790
28.90000,-4.81679,-4.04158
28.95000,-4.82519,-4.04426
29.00000,-4.83359,-4.04996
29.05000,-4.84185,-4.05178
29.10000,-4.85012,-4.05682
29.15000,-4.85839,-4.05867
29.20000,-4.86665,-4.06366
29.25000,-4.87506,-4.06569
29.30000,-4.88345,-4.07130
29.35000,-4.89199,-4.07458
29.40000,-4.90039,-4.07924
29.45000,-4.90852,-4.08273
29.50000,-4.91705,-4.08571
29.55000,-4.92545,-4.08896
29.60000,-4.93359,-4.09441
29.65000,-4.94185,-4.09454
29.70000,-4.95039,-4.10070
29.75000,-4.95852,-4.10202
29.80000,-4.96665,-4.10716
29.85000,-4.97519,-4.10715
29.90000,-4.98359,-4.11448
29.95000,-4.99159,-4.11359
30.00000,-4.99999,-4.11916
30.05000,-5.00852,-4.12076
30.10000,-5.01679,-4.12486
30.15000,-5.02505,-4.12738
30.20000,-5.03359,-4.12894
30.25000,-5.04199,-4.13332
30.30000,-5.05039,-4.13772
30.35000,-5.05865,-4.13902
30.40000,-5.06705,-4.14341
30.45000,-5.07532,-4.14436
30.50000,-5.08372,-4.14996
30.55000,-5.09185,-4.15010
30.60000,-5.10039,-4.15619
30.65000,-5.10865,-4.15724
30.70000,-5.11665,-4.16113
30.75000,-5.12519,-4.16241
30.80000,-5.13359,-4.16698
30.85000,-5.14159,-4.16841
30.90000,-5.15012,-4.17282
30.95000,-5.15879,-4.17461
31.00000,-5.16692,-4.17868
31.05000,-5.17519,-4.17858
31.10000,-5.18385,-4.18347
31.15000,-5.19199,-4.18407
31.20000,-5.20025,-4.18795
31.25000,-5.20865,-4.18847
31.30000,-5.21692,-4.19178
31.35000,-5.22519,-4.19319
31.40000,-5.23359,-4.19618
31.45000,-5.24185,-4.19730
31.50000,-5.25025,-4.20086
31.55000,-5.25865,-4.20147
31.60000,-5.26665,-4.20475
31.65000,-5.27532,-4.20489
31.70000,-5.28359,-4.20985
31.75000,-5.29172,-4.20958
31.80000,-5.30025,-4.21296
31.85000,-5.30879,-4.21440
31.90000,-5.31679,-4.21785
31.95000,-5.32519,-4.21857
32.00000,-5.33372,-4.22044
32.05000,-5.34199,-4.22318
32.10000,-5.35012,-4.22539
32.15000,-5.35852,-4.22589
32.20000,-5.36692,-4.22929
32.25000,-5.37505,-4.22960
32.30000,-5.38332,-4.23311
32.35000,-5.39172,-4.23347
32.40000,-5.39999,-4.23613
32.45000,-5.40825,-4.23796
32.50000,-5.41679,-4.24068
32.55000,-5.42532,-4.24281
32.60000,-5.43359,-4.24289
32.65000,-5.44185,-4.24779
32.70000,-5.45025,-4.24580
32.75000,-5.45865,-4.25039
32.80000,-5.46692,-4.25015
32.85000,-5.47519,-4.25288
32.90000,-5.48372,-4.25227
32.95000,-5.49185,-4.25618
33.00000,-5.49999,-4.25571
33.05000,-5.50852,-4.25936
33.10000,-5.51692,-4.26030
33.15000,-5.52505,-4.26250
33.20000,-5.53332,-4.26334
33.25000,-5.54199,-4.26638
33.30000,-5.55025,-4.26785
33.35000,-5.55852,-4.26961
33.40000,-5.56705,-4.27152
33.45000,-5.57532,-4.27367
33.50000,-5.58359,-4.27458
33.55000,-5.59199,-4.27606
33.60000,-5.60039,-4.27740
33.65000,-5.60865,-4.27912
33.70000,-5.61705,-4.28066
33.75000,-5.62519,-4.28132
33.80000,-5.63359,-4.28172
33.85000,-5.64185,-4.28325
33.90000,-5.64999,-4.28366
33.95000,-5.65852,-4.28389
34.00000,-5.66692,-4.28605
34.05000,-5.67505,-4.28731
34.10000,-5.68359,-4.28713
34.15000,-5.69212,-4.28930
34.20000,-5.70012,-4.28949
34.25000,-5.70852,-4.29080
34.30000,-5.71719,-4.29057
34.35000,-5.72532,-4.29197
34.40000,-5.73359,-4.29196
34.45000,-5.74212,-4.29410
34.50000,-5.75025,-4.29286
34.55000,-5.75852,-4.29452
34.60000,-5.76692,-4.29424
34.65000,-5.77519,-4.29534
34.70000,-5.78359,-4.29431
34.75000,-5.79185,-4.29486
34.80000,-5.79999,-4.29556
34.85000,-5.80852,-4.29324
34.90000,-5.81692,-4.29575
34.95000,-5.82505,-4.29454
35.00000,-5.83359,-4.29494
35.05000,-5.84212,-4.29384
35.10000,-5.85012,-4.29494
35.15000,-5.85839,-4.29200
35.20000,-5.86692,-4.29480
35.25000,-5.87519,-4.28995
35.30000,-5.88345,-4.29632
35.35000,-5.89185,-4.28971
35.40000,-5.90025,-4.29402
35.45000,-5.90852,-4.29101
35.50000,-5.91679,-4.29264
35.55000,-5.92519,-4.28707
35.60000,-5.93345,-4.29395
35.65000,-5.94185,-4.28271
35.70000,-5.95012,-4.29206
35.75000,-5.95865,-4.28235
35.80000,-5.96692,-4.28864
35.85000,-5.97505,-4.28298
35.90000,-5.98359,-4.28504
35.95000,-5.99199,-4.28242
