Time,Extension,Load
(sec),(mm),(N)
0.00000,0.00000,-0.00142
0.05000,-0.00107,-0.00060
0.10000,-0.00533,-0.00087
0.15000,-0.01400,-0.00611
0.20000,-0.02467,-0.01050
0.25000,-0.03507,-0.01694
0.30000,-0.04520,-0.02392
0.35000,-0.05480,-0.02722
0.40000,-0.06400,-0.03409
0.45000,-0.07320,-0.03878
0.50000,-0.08187,-0.04234
0.55000,-0.09053,-0.04781
0.60000,-0.09933,-0.05502
0.65000,-0.10760,-0.06013
0.70000,-0.11600,-0.06577
0.75000,-0.12467,-0.06995
0.80000,-0.13293,-0.07613
0.85000,-0.14120,-0.08324
0.90000,-0.14973,-0.08939
0.95000,-0.15827,-0.09509
1.00000,-0.16640,-0.10250
1.05000,-0.17493,-0.11009
1.10000,-0.18347,-0.11699
1.15000,-0.19173,-0.12522
1.20000,-0.20013,-0.13047
1.25000,-0.20853,-0.14102
1.30000,-0.21680,-0.14705
1.35000,-0.22520,-0.15753
1.40000,-0.23333,-0.16313
1.45000,-0.24160,-0.17306
1.50000,-0.25000,-0.18023
1.55000,-0.25827,-0.19095
1.60000,-0.26640,-0.19891
1.65000,-0.27507,-0.20898
1.70000,-0.28320,-0.21826
1.75000,-0.29147,-0.22808
1.80000,-0.30013,-0.23728
1.85000,-0.30853,-0.24779
1.90000,-0.31667,-0.25775
1.95000,-0.32507,-0.26891
2.00000,-0.33347,-0.27949
2.05000,-0.34160,-0.28988
2.10000,-0.34987,-0.30028
2.15000,-0.35840,-0.31269
2.20000,-0.36667,-0.32378
2.25000,-0.37493,-0.33537
2.30000,-0.38320,-0.34758
2.35000,-0.39160,-0.35996
2.40000,-0.39987,-0.37114
2.45000,-0.40813,-0.38436
2.50000,-0.41640,-0.39685
2.55000,-0.42507,-0.40860
2.60000,-0.43333,-0.42291
2.65000,-0.44147,-0.43475
2.70000,-0.45000,-0.44837
2.75000,-0.45840,-0.46119
2.80000,-0.46653,-0.47592
2.85000,-0.47507,-0.48903
2.90000,-0.48360,-0.50370
2.95000,-0.49160,-0.51669
3.00000,-0.49973,-0.52951
3.05000,-0.50827,-0.54502
3.10000,-0.51640,-0.55813
3.15000,-0.52467,-0.57206
3.20000,-0.53320,-0.58614
3.25000,-0.54160,-0.60034
3.30000,-0.54987,-0.61528
3.35000,-0.55827,-0.62921
3.40000,-0.56653,-0.64424
3.45000,-0.57493,-0.66013
3.50000,-0.58347,-0.67473
3.55000,-0.59147,-0.69019
3.60000,-0.60013,-0.70471
3.65000,-0.60840,-0.72149
3.70000,-0.61653,-0.73562
3.75000,-0.62493,-0.75173
3.80000,-0.63360,-0.76630
3.85000,-0.64160,-0.78315
3.90000,-0.64973,-0.79674
3.95000,-0.65840,-0.81449
4.00000,-0.66653,-0.82927
4.05000,-0.67480,-0.84551
4.10000,-0.68320,-0.86133
4.15000,-0.69160,-0.87901
4.20000,-0.69986,-0.89360
4.25000,-0.70840,-0.91077
4.30000,-0.71680,-0.92873
4.35000,-0.72506,-0.94364
4.40000,-0.73346,-0.95889
4.45000,-0.74173,-0.97858
4.50000,-0.75013,-0.99284
4.55000,-0.75853,-1.01035
4.60000,-0.76680,-1.02626
4.65000,-0.77506,-1.04367
4.70000,-0.78346,-1.05863
4.75000,-0.79160,-1.07635
4.80000,-0.79986,-1.09196
4.85000,-0.80826,-1.10947
4.90000,-0.81653,-1.12459
4.95000,-0.82480,-1.14173
5.00000,-0.83346,-1.15755
5.05000,-0.84173,-1.17492
5.10000,-0.84986,-1.19038
5.15000,-0.85840,-1.20742
5.20000,-0.86693,-1.22356
5.25000,-0.87506,-1.24056
5.30000,-0.88346,-1.25694
5.35000,-0.89186,-1.27331
5.40000,-0.90013,-1.29010
5.45000,-0.90840,-1.30560
5.50000,-0.91666,-1.32326
5.55000,-0.92506,-1.33793
5.60000,-0.93346,-1.35612
5.65000,-0.94160,-1.37168
5.70000,-0.94986,-1.38912
5.75000,-0.95840,-1.40410
5.80000,-0.96666,-1.42305
5.85000,-0.97493,-1.43706
5.90000,-0.98346,-1.45516
5.95000,-0.99186,-1.47033
6.00000,-0.99986,-1.48925
6.05000,-1.00826,-1.50415
6.10000,-1.01680,-1.52387
6.15000,-1.02493,-1.53932
6.20000,-1.03320,-1.55826
6.25000,-1.04160,-1.57363
6.30000,-1.04986,-1.59233
6.35000,-1.05813,-1.60787
6.40000,-1.06653,-1.62579
6.45000,-1.07480,-1.64049
6.50000,-1.08306,-1.65776
6.55000,-1.09146,-1.67302
6.60000,-1.09986,-1.69072
6.65000,-1.10826,-1.70481
6.70000,-1.11666,-1.72230
6.75000,-1.12480,-1.73735
6.80000,-1.13333,-1.75296
6.85000,-1.14173,-1.76854
6.90000,-1.14986,-1.78155
6.95000,-1.15826,-1.79440
7.00000,-1.16680,-1.80894
7.05000,-1.17466,-1.82441
7.10000,-1.18293,-1.83329
7.15000,-1.19173,-1.83668
7.20000,-1.20000,-1.84454
7.25000,-1.20813,-1.85598
7.30000,-1.21653,-1.86125
7.35000,-1.22506,-1.87451
7.40000,-1.23320,-1.88940
7.45000,-1.24173,-1.90897
7.50000,-1.25013,-1.91630
7.55000,-1.25840,-1.92142
7.60000,-1.26680,-1.91789
7.65000,-1.27506,-1.93762
7.70000,-1.28346,-1.94063
7.75000,-1.29173,-1.95606
7.80000,-1.30000,-1.97558
7.85000,-1.30826,-1.99453
7.90000,-1.31680,-2.01286
7.95000,-1.32493,-2.03003
8.00000,-1.33306,-2.04502
8.05000,-1.34173,-2.06164
8.10000,-1.35000,-2.07771
8.15000,-1.35813,-2.09125
8.20000,-1.36680,-2.10473
8.25000,-1.37506,-2.12154
8.30000,-1.38320,-2.13886
8.35000,-1.39160,-2.12918
8.40000,-1.40026,-2.10201
8.45000,-1.40840,-2.11659
8.50000,-1.41680,-2.12451
8.55000,-1.42520,-2.13268
8.60000,-1.43333,-2.13541
8.65000,-1.44160,-2.13686
8.70000,-1.45000,-2.14165
8.75000,-1.45840,-2.14720
8.80000,-1.46666,-2.15018
8.85000,-1.47493,-2.16601
8.90000,-1.48320,-2.18382
8.95000,-1.49173,-2.20531
9.00000,-1.50000,-2.22124
9.05000,-1.50826,-2.23929
9.10000,-1.51680,-2.25306
9.15000,-1.52520,-2.27078
9.20000,-1.53333,-2.28330
9.25000,-1.54173,-2.29972
9.30000,-1.55026,-2.31280
9.35000,-1.55826,-2.33026
9.40000,-1.56653,-2.34509
9.45000,-1.57506,-2.36335
9.50000,-1.58320,-2.37915
9.55000,-1.59146,-2.39635
9.60000,-1.59986,-2.41175
9.65000,-1.60813,-2.42988
9.70000,-1.61640,-2.44354
9.75000,-1.62480,-2.46235
9.80000,-1.63320,-2.47735
9.85000,-1.64173,-2.49574
9.90000,-1.65013,-2.51036
9.95000,-1.65826,-2.52732
10.00000,-1.66666,-2.54145
10.05000,-1.67520,-2.55838
10.10000,-1.68320,-2.57307
10.15000,-1.69160,-2.58857
10.20000,-1.70026,-2.60357
10.25000,-1.70826,-2.61944
10.30000,-1.71640,-2.63332
10.35000,-1.72506,-2.64851
10.40000,-1.73320,-2.66412
10.45000,-1.74133,-2.67728
10.50000,-1.74973,-2.69192
10.55000,-1.75826,-2.70819
10.60000,-1.76653,-2.72162
10.65000,-1.77493,-2.73639
10.70000,-1.78346,-2.75149
10.75000,-1.79173,-2.76609
10.80000,-1.80013,-2.78045
10.85000,-1.80840,-2.79492
10.90000,-1.81680,-2.80868
10.95000,-1.82506,-2.82223
11.00000,-1.83333,-2.83676
11.05000,-1.84160,-2.84880
11.10000,-1.84986,-2.86261
11.15000,-1.85813,-2.87564
11.20000,-1.86653,-2.88903
11.25000,-1.87520,-2.90328
11.30000,-1.88333,-2.91721
11.35000,-1.89146,-2.92882
11.40000,-1.90013,-2.94389
11.45000,-1.90853,-2.95695
11.50000,-1.91666,-2.97137
11.55000,-1.92506,-2.98235
11.60000,-1.93360,-2.99789
11.65000,-1.94173,-3.00831
11.70000,-1.95000,-3.02154
11.75000,-1.95853,-3.03282
11.80000,-1.96680,-3.04680
11.85000,-1.97493,-3.05815
11.90000,-1.98333,-3.07146
11.95000,-1.99173,-3.08178
12.00000,-2.00000,-3.09709
12.05000,-2.00826,-3.10676
12.10000,-2.01653,-3.12127
12.15000,-2.02506,-3.13143
12.20000,-2.03333,-3.14480
12.25000,-2.04160,-3.15564
12.30000,-2.05013,-3.16898
12.35000,-2.05853,-3.17992
12.40000,-2.06653,-3.19272
12.45000,-2.07506,-3.20346
12.50000,-2.08359,-3.21700
12.55000,-2.09159,-3.22788
12.60000,-2.09986,-3.24151
12.65000,-2.10839,-3.25206
12.70000,-2.11653,-3.26709
12.75000,-2.12479,-3.27534
12.80000,-2.13319,-3.28984
12.85000,-2.14146,-3.29916
12.90000,-2.14973,-3.31455
12.95000,-2.15813,-3.32347
13.00000,-2.16653,-3.33903
13.05000,-2.17493,-3.34871
13.10000,-2.18333,-3.36248
13.15000,-2.19146,-3.37151
13.20000,-2.20013,-3.38482
13.25000,-2.20853,-3.39637
13.30000,-2.21653,-3.40902
13.35000,-2.22493,-3.41659
13.40000,-2.23346,-3.43417
13.45000,-2.24146,-3.44159
13.50000,-2.24973,-3.45409
13.55000,-2.25839,-3.46392
13.60000,-2.26653,-3.47925
13.65000,-2.27466,-3.48767
13.70000,-2.28319,-3.49960
13.75000,-2.29173,-3.51158
13.80000,-2.29999,-3.52435
13.85000,-2.30826,-3.53386
13.90000,-2.31693,-3.54822
13.95000,-2.32506,-3.55826
14.00000,-2.33346,-3.57156
14.05000,-2.34173,-3.58267
14.10000,-2.35013,-3.59434
14.15000,-2.35839,-3.60449
14.20000,-2.36666,-3.61749
14.25000,-2.37506,-3.62877
14.30000,-2.38346,-3.63952
14.35000,-2.39159,-3.65012
14.40000,-2.39986,-3.66185
14.45000,-2.40839,-3.67117
14.50000,-2.41653,-3.68376
14.55000,-2.42466,-3.69198
14.60000,-2.43333,-3.70467
14.65000,-2.44186,-3.71525
14.70000,-2.44999,-3.72512
14.75000,-2.45826,-3.73557
14.80000,-2.46693,-3.74644
14.85000,-2.47506,-3.75645
14.90000,-2.48333,-3.76573
14.95000,-2.49173,-3.77574
15.00000,-2.49986,-3.78406
15.05000,-2.50813,-3.79537
15.10000,-2.51639,-3.80471
15.15000,-2.52493,-3.81555
15.20000,-2.53333,-3.82360
15.25000,-2.54159,-3.83700
15.30000,-2.54986,-3.84182
15.35000,-2.55839,-3.85528
15.40000,-2.56666,-3.86315
15.45000,-2.57479,-3.87495
15.50000,-2.58346,-3.88069
15.55000,-2.59186,-3.89464
15.60000,-2.59986,-3.90101
15.65000,-2.60826,-3.91075
15.70000,-2.61693,-3.91895
15.75000,-2.62493,-3.93043
15.80000,-2.63319,-3.93676
15.85000,-2.64173,-3.94735
15.90000,-2.64986,-3.95371
15.95000,-2.65799,-3.96411
16.00000,-2.66653,-3.97206
16.05000,-2.67479,-3.98238
16.10000,-2.68306,-3.98876
16.15000,-2.69146,-4.00190
16.20000,-2.69986,-4.00734
16.25000,-2.70839,-4.02182
16.30000,-2.71666,-4.02427
16.35000,-2.72493,-4.04174
16.40000,-2.73333,-4.04160
16.45000,-2.74173,-4.05938
16.50000,-2.74986,-4.06142
16.55000,-2.75826,-4.07560
16.60000,-2.76679,-4.07936
16.65000,-2.77493,-4.09483
16.70000,-2.78306,-4.09489
16.75000,-2.79159,-4.11193
16.80000,-2.79986,-4.11199
16.85000,-2.80799,-4.12862
16.90000,-2.81653,-4.12755
16.95000,-2.82493,-4.14617
17.00000,-2.83319,-4.14513
17.05000,-2.84159,-4.16195
17.10000,-2.85013,-4.16291
17.15000,-2.85839,-4.17728
17.20000,-2.86666,-4.17896
17.25000,-2.87506,-4.19443
17.30000,-2.88346,-4.19396
17.35000,-2.89186,-4.20974
17.40000,-2.89999,-4.21012
17.45000,-2.90826,-4.22275
17.50000,-2.91679,-4.22502
17.55000,-2.92493,-4.23805
17.60000,-2.93306,-4.23980
17.65000,-2.94173,-4.25126
17.70000,-2.94999,-4.25633
17.75000,-2.95813,-4.26507
17.80000,-2.96666,-4.27177
17.85000,-2.97519,-4.28210
17.90000,-2.98333,-4.28842
17.95000,-2.99173,-4.29702
18.00000,-3.00026,-4.30280
18.05000,-3.00839,-4.31340
18.10000,-3.01666,-4.31719
18.15000,-3.02519,-4.32656
18.20000,-3.03346,-4.33329
18.25000,-3.04173,-4.34070
18.30000,-3.04999,-4.34713
18.35000,-3.05826,-4.35391
18.40000,-3.06666,-4.36157
18.45000,-3.07493,-4.36779
18.50000,-3.08306,-4.37536
18.55000,-3.09173,-4.38157
18.60000,-3.09999,-4.39102
18.65000,-3.10826,-4.39500
18.70000,-3.11679,-4.40372
18.75000,-3.12519,-4.40907
18.80000,-3.13333,-4.41813
18.85000,-3.14173,-4.41995
18.90000,-3.15026,-4.43076
18.95000,-3.15813,-4.43295
19.00000,-3.16639,-4.44109
19.05000,-3.17479,-4.44633
19.10000,-3.18306,-4.45254
19.15000,-3.19146,-4.45798
19.20000,-3.19986,-4.46515
19.25000,-3.20813,-4.47022
19.30000,-3.21653,-4.47592
19.35000,-3.22493,-4.48113
19.40000,-3.23319,-4.48727
19.45000,-3.24159,-4.49250
19.50000,-3.25013,-4.49903
19.55000,-3.25813,-4.50517
19.60000,-3.26666,-4.50960
19.65000,-3.27519,-4.51696
19.70000,-3.28319,-4.52261
19.75000,-3.29159,-4.52856
19.80000,-3.30013,-4.53417
19.85000,-3.30813,-4.54045
19.90000,-3.31639,-4.54521
19.95000,-3.32493,-4.55140
20.00000,-3.33319,-4.55910
20.05000,-3.34133,-4.56273
20.10000,-3.34986,-4.57037
20.15000,-3.35826,-4.57541
20.20000,-3.36653,-4.58266
20.25000,-3.37493,-4.58715
20.30000,-3.38346,-4.59475
20.35000,-3.39173,-4.59910
20.40000,-3.39999,-4.60652
20.45000,-3.40826,-4.61003
20.50000,-3.41679,-4.61730
20.55000,-3.42506,-4.62256
20.60000,-3.43332,-4.63002
20.65000,-3.44172,-4.63168
20.70000,-3.45012,-4.64292
20.75000,-3.45826,-4.64348
20.80000,-3.46652,-4.65161
20.85000,-3.47506,-4.65391
20.90000,-3.48332,-4.66410
20.95000,-3.49146,-4.66407
21.00000,-3.49999,-4.67429
21.05000,-3.50852,-4.67746
21.10000,-3.51666,-4.68497
21.15000,-3.52506,-4.68647
21.20000,-3.53359,-4.69632
21.25000,-3.54172,-4.69795
21.30000,-3.54999,-4.70561
21.35000,-3.55852,-4.70915
21.40000,-3.56679,-4.71528
21.45000,-3.57492,-4.71965
21.50000,-3.58319,-4.72477
21.55000,-3.59159,-4.72917
21.60000,-3.59986,-4.73393
21.65000,-3.60812,-4.73971
21.70000,-3.61639,-4.74384
21.75000,-3.62506,-4.74969
21.80000,-3.63332,-4.75645
21.85000,-3.64146,-4.76168
21.90000,-3.64999,-4.76511
21.95000,-3.65852,-4.77338
22.00000,-3.66652,-4.77438
22.05000,-3.67492,-4.78171
22.10000,-3.68359,-4.78460
22.15000,-3.69159,-4.79247
22.20000,-3.69986,-4.79284
22.25000,-3.70826,-4.79993
22.30000,-3.71652,-4.80248
22.35000,-3.72479,-4.80767
22.40000,-3.73319,-4.81016
22.45000,-3.74146,-4.81684
22.50000,-3.74972,-4.81859
22.55000,-3.75812,-4.82460
22.60000,-3.76639,-4.82833
22.65000,-3.77492,-4.83387
22.70000,-3.78346,-4.83780
22.75000,-3.79159,-4.84277
22.80000,-3.80012,-4.84588
22.85000,-3.80839,-4.85229
22.90000,-3.81652,-4.85491
22.95000,-3.82479,-4.85842
23.00000,-3.83346,-4.86327
23.05000,-3.84146,-4.86846
23.10000,-3.84986,-4.87136
23.15000,-3.85839,-4.87627
23.20000,-3.86666,-4.88215
23.25000,-3.87479,-4.88343
23.30000,-3.88332,-4.88819
23.35000,-3.89172,-4.89167
23.40000,-3.89999,-4.89746
23.45000,-3.90826,-4.89909
23.50000,-3.91679,-4.90487
23.55000,-3.92492,-4.90660
23.60000,-3.93332,-4.91155
23.65000,-3.94172,-4.91406
23.70000,-3.95012,-4.91706
23.75000,-3.95852,-4.91921
23.80000,-3.96666,-4.92285
23.85000,-3.97492,-4.92252
23.90000,-3.98346,-4.92506
23.95000,-3.99159,-4.92746
24.00000,-3.99986,-4.92799
24.05000,-4.00839,-4.93083
24.10000,-4.01652,-4.93206
24.15000,-4.02466,-4.93606
24.20000,-4.03332,-4.93585
24.25000,-4.04186,-4.94158
24.30000,-4.04999,-4.94170
24.35000,-4.05839,-4.94453
24.40000,-4.06692,-4.94569
24.45000,-4.07506,-4.94805
24.50000,-4.08332,-4.94884
24.55000,-4.09186,-4.95136
24.60000,-4.10012,-4.95189
24.65000,-4.10826,-4.95410
24.70000,-4.11666,-4.95573
24.75000,-4.12492,-4.95647
24.80000,-4.13332,-4.95854
24.85000,-4.14159,-4.95910
24.90000,-4.14972,-4.95979
24.95000,-4.15826,-4.96100
25.00000,-4.16666,-4.96285
25.05000,-4.17479,-4.96343
25.10000,-4.18332,-4.96669
25.15000,-4.19172,-4.96742
25.20000,-4.19972,-4.96802
25.25000,-4.20812,-4.96768
25.30000,-4.21692,-4.97231
25.35000,-4.22492,-4.97204
25.40000,-4.23319,-4.97315
25.45000,-4.24172,-4.97506
25.50000,-4.24986,-4.97638
25.55000,-4.25812,-4.97698
25.60000,-4.26652,-4.97838
25.65000,-4.27479,-4.98099
25.70000,-4.28306,-4.98147
25.75000,-4.29146,-4.98389
25.80000,-4.29972,-4.98572
25.85000,-4.30826,-4.98431
25.90000,-4.31679,-4.99263
25.95000,-4.32492,-4.98821
26.00000,-4.33332,-4.99408
26.05000,-4.34172,-4.99337
26.10000,-4.34986,-4.99889
26.15000,-4.35826,-4.99619
26.20000,-4.36679,-5.00250
26.25000,-4.37492,-5.00194
26.30000,-4.38319,-5.00499
26.35000,-4.39172,-5.00457
26.40000,-4.39986,-5.00996
26.45000,-4.40799,-5.00760
26.50000,-4.41652,-5.01226
26.55000,-4.42492,-5.01303
26.60000,-4.43306,-5.01674
26.65000,-4.44159,-5.01642
26.70000,-4.44999,-5.02073
26.75000,-4.45839,-5.02177
26.80000,-4.46679,-5.02412
26.85000,-4.47506,-5.02605
26.90000,-4.48346,-5.02597
26.95000,-4.49172,-5.02859
27.00000,-4.49986,-5.02901
27.05000,-4.50839,-5.02982
27.10000,-4.51692,-5.03218
27.15000,-4.52506,-5.03385
27.20000,-4.53319,-5.03245
27.25000,-4.54172,-5.03482
27.30000,-4.55012,-5.03527
27.35000,-4.55826,-5.03659
27.40000,-4.56666,-5.03620
27.45000,-4.57519,-5.03980
27.50000,-4.58332,-5.03907
27.55000,-4.59172,-5.04011
27.60000,-4.60026,-5.04196
27.65000,-4.60852,-5.04356
27.70000,-4.61679,-5.04288
27.75000,-4.62519,-5.04569
27.80000,-4.63332,-5.04425
27.85000,-4.64159,-5.05000
27.90000,-4.64986,-5.04023
27.95000,-4.65826,-5.05418
28.00000,-4.66666,-5.04228
28.05000,-4.67479,-5.05370
28.10000,-4.68306,-5.04380
28.15000,-4.69172,-5.05744
28.20000,-4.69999,-5.04709
28.25000,-4.70826,-5.05870
28.30000,-4.71679,-5.04937
28.35000,-4.72532,-5.06116
28.40000,-4.73319,-5.05321
28.45000,-4.74159,-5.06121
28.50000,-4.75026,-5.05652
28.55000,-4.75826,-5.06510
28.60000,-4.76652,-5.06076
28.65000,-4.77492,-5.06682
28.70000,-4.78319,-5.06581
28.75000,-4.79145,-5.06941
28.80000,-4.79985,-5.07061
28.85000,-4.80812,-5.07169
28.90000,-4.81639,-5.07473
28.95000,-4.82479,-5.07647
29.00000,-4.83319,-5.08123
29.05000,-4.84172,-5.08113
29.10000,-4.85012,-5.08759
29.15000,-4.85825,-5.08323
29.20000,-4.86679,-5.09465
29.25000,-4.87506,-5.08562
29.30000,-4.88319,-5.09829
29.35000,-4.89159,-5.09180
29.40000,-4.90012,-5.09984
29.45000,-4.90812,-5.09848
29.50000,-4.91639,-5.10355
29.55000,-4.92492,-5.10235
29.60000,-4.93319,-5.11118
29.65000,-4.94132,-5.10713
29.70000,-4.94985,-5.11358
29.75000,-4.95825,-5.11532
29.80000,-4.96652,-5.11845
29.85000,-4.97492,-5.12021
29.90000,-4.98332,-5.12349
29.95000,-4.99172,-5.12908
30.00000,-5.00012,-5.12526
30.05000,-5.00839,-5.13494
30.10000,-5.01679,-5.12935
30.15000,-5.02505,-5.13677
30.20000,-5.03332,-5.13172
30.25000,-5.04172,-5.14342
30.30000,-5.05012,-5.13631
30.35000,-5.05825,-5.14838
30.40000,-5.06652,-5.14020
30.45000,-5.07505,-5.15238
30.50000,-5.08332,-5.14828
30.55000,-5.09145,-5.15773
30.60000,-5.09999,-5.15565
30.65000,-5.10839,-5.16508
30.70000,-5.11665,-5.16332
30.75000,-5.12505,-5.17290
30.80000,-5.13359,-5.16743
30.85000,-5.14159,-5.18089
30.90000,-5.14999,-5.17558
30.95000,-5.15839,-5.18794
31.00000,-5.16665,-5.18253
31.05000,-5.17492,-5.19317
31.10000,-5.18332,-5.19090
31.15000,-5.19172,-5.19802
31.20000,-5.19999,-5.19738
31.25000,-5.20825,-5.20509
31.30000,-5.21652,-5.20280
31.35000,-5.22505,-5.21147
31.40000,-5.23332,-5.21109
31.45000,-5.24159,-5.21622
31.50000,-5.25012,-5.21867
31.55000,-5.25852,-5.22422
31.60000,-5.26652,-5.22559
31.65000,-5.27505,-5.22983
31.70000,-5.28359,-5.23508
31.75000,-5.29159,-5.23721
31.80000,-5.29985,-5.24215
31.85000,-5.30825,-5.24404
31.90000,-5.31639,-5.24934
31.95000,-5.32465,-5.25167
32.00000,-5.33319,-5.25623
32.05000,-5.34145,-5.26034
32.10000,-5.34972,-5.26427
32.15000,-5.35812,-5.26839
32.20000,-5.36652,-5.27303
32.25000,-5.37505,-5.27726
32.30000,-5.38345,-5.28257
32.35000,-5.39159,-5.28637
32.40000,-5.40012,-5.28925
32.45000,-5.40852,-5.29569
32.50000,-5.41652,-5.29825
32.55000,-5.42479,-5.30173
32.60000,-5.43345,-5.30639
32.65000,-5.44145,-5.31255
32.70000,-5.44972,-5.31268
32.75000,-5.45839,-5.32017
32.80000,-5.46652,-5.32238
32.85000,-5.47465,-5.32749
32.90000,-5.48319,-5.33060
32.95000,-5.49159,-5.33675
33.00000,-5.49999,-5.34000
33.05000,-5.50839,-5.34503
33.10000,-5.51679,-5.34954
33.15000,-5.52505,-5.35334
33.20000,-5.53332,-5.35638
33.25000,-5.54172,-5.36024
33.30000,-5.55012,-5.36344
33.35000,-5.55839,-5.36149
33.40000,-5.56665,-5.35651
33.45000,-5.57505,-5.36121
33.50000,-5.58345,-5.36543
33.55000,-5.59159,-5.36915
33.60000,-5.59972,-5.37311
33.65000,-5.60839,-5.37732
33.70000,-5.61665,-5.38394
33.75000,-5.62492,-5.38477
33.80000,-5.63345,-5.39089
33.85000,-5.64172,-5.39420
33.90000,-5.64985,-5.39782
33.95000,-5.65839,-5.40252
34.00000,-5.66692,-5.40873
34.05000,-5.67505,-5.41036
34.10000,-5.68332,-5.41849
34.15000,-5.69185,-5.41965
34.20000,-5.69999,-5.42781
34.25000,-5.70825,-5.42802
34.30000,-5.71652,-5.43652
34.35000,-5.72505,-5.43743
34.40000,-5.73319,-5.44462
34.45000,-5.74145,-5.44678
34.50000,-5.74972,-5.45150
34.55000,-5.75839,-5.45594
34.60000,-5.76665,-5.46141
34.65000,-5.77479,-5.46485
34.70000,-5.78345,-5.46897
34.75000,-5.79185,-5.47325
34.80000,-5.79985,-5.47702
34.85000,-5.80825,-5.47966
34.90000,-5.81679,-5.48296
34.95000,-5.82479,-5.48936
35.00000,-5.83319,-5.49083
35.05000,-5.84172,-5.49815
35.10000,-5.84999,-5.50040
35.15000,-5.85825,-5.50541
35.20000,-5.86665,-5.50607
35.25000,-5.87492,-5.51352
35.30000,-5.88319,-5.51227
35.35000,-5.89145,-5.52153
35.40000,-5.89985,-5.52051
35.45000,-5.90839,-5.52777
35.50000,-5.91665,-5.52892
35.55000,-5.92492,-5.53534
35.60000,-5.93332,-5.53577
35.65000,-5.94172,-5.54230
35.70000,-5.94985,-5.54459
35.75000,-5.95812,-5.54803
35.80000,-5.96679,-5.55259
35.85000,-5.97492,-5.55797
35.90000,-5.98319,-5.55757
35.95000,-5.99172,-5.56488
