Time,Extension,Load
(sec),(mm),(N)
0.00000,0.00000,-0.61797
0.05000,-0.00107,-0.61783
0.10000,-0.00560,-0.62538
0.15000,-0.01467,-0.64182
0.20000,-0.02520,-0.66931
0.25000,-0.03573,-0.69414
0.30000,-0.04560,-0.71830
0.35000,-0.05507,-0.73883
0.40000,-0.06440,-0.75986
0.45000,-0.07347,-0.77892
0.50000,-0.08200,-0.79687
0.55000,-0.09080,-0.81506
0.60000,-0.09947,-0.83372
0.65000,-0.10787,-0.84843
0.70000,-0.11627,-0.86718
0.75000,-0.12493,-0.88480
0.80000,-0.13320,-0.89802
0.85000,-0.14147,-0.91612
0.90000,-0.15000,-0.93266
0.95000,-0.15840,-0.94790
1.00000,-0.16653,-0.96402
1.05000,-0.17493,-0.97912
1.10000,-0.18333,-0.99582
1.15000,-0.19160,-1.01065
1.20000,-0.20000,-1.02805
1.25000,-0.20827,-1.03983
1.30000,-0.21680,-1.05884
1.35000,-0.22520,-1.07387
1.40000,-0.23333,-1.08693
1.45000,-0.24187,-1.10545
1.50000,-0.25027,-1.11927
1.55000,-0.25853,-1.13389
1.60000,-0.26680,-1.15027
1.65000,-0.27533,-1.16273
1.70000,-0.28347,-1.18118
1.75000,-0.29160,-1.19165
1.80000,-0.30013,-1.22762
1.85000,-0.30840,-1.19982
1.90000,-0.31653,-1.23726
1.95000,-0.32493,-1.24383
2.00000,-0.33360,-1.26250
2.05000,-0.34173,-1.26990
2.10000,-0.35000,-1.30926
2.15000,-0.35867,-1.29406
2.20000,-0.36693,-1.33594
2.25000,-0.37520,-1.31823
2.30000,-0.38360,-1.37303
2.35000,-0.39200,-1.34936
2.40000,-0.40027,-1.39649
2.45000,-0.40853,-1.38165
2.50000,-0.41680,-1.41067
2.55000,-0.42520,-1.42527
2.60000,-0.43347,-1.43226
2.65000,-0.44160,-1.44875
2.70000,-0.45013,-1.46466
2.75000,-0.45840,-1.47181
2.80000,-0.46653,-1.49744
2.85000,-0.47507,-1.49657
2.90000,-0.48360,-1.52494
2.95000,-0.49173,-1.52615
3.00000,-0.50013,-1.54733
3.05000,-0.50867,-1.55815
3.10000,-0.51680,-1.57080
3.15000,-0.52520,-1.58535
3.20000,-0.53360,-1.59636
3.25000,-0.54187,-1.61608
3.30000,-0.55013,-1.61971
3.35000,-0.55840,-1.63901
3.40000,-0.56667,-1.64848
3.45000,-0.57493,-1.66398
3.50000,-0.58320,-1.67728
3.55000,-0.59147,-1.68744
3.60000,-0.60000,-1.70284
3.65000,-0.60840,-1.71395
3.70000,-0.61667,-1.72921
3.75000,-0.62507,-1.74137
3.80000,-0.63360,-1.75220
3.85000,-0.64173,-1.76916
3.90000,-0.65013,-1.77736
3.95000,-0.65867,-1.79417
4.00000,-0.66693,-1.80291
4.05000,-0.67507,-1.81877
4.10000,-0.68346,-1.82730
4.15000,-0.69173,-1.84442
4.20000,-0.69986,-1.85497
4.25000,-0.70826,-1.86513
4.30000,-0.71666,-1.87591
4.35000,-0.72493,-1.89425
4.40000,-0.73333,-1.90341
4.45000,-0.74173,-1.91917
4.50000,-0.75026,-1.92649
4.55000,-0.75853,-1.94241
4.60000,-0.76680,-1.95641
4.65000,-0.77520,-1.96285
4.70000,-0.78360,-1.98125
4.75000,-0.79173,-1.98893
4.80000,-0.80000,-2.00294
4.85000,-0.80866,-2.01529
4.90000,-0.81680,-2.02696
4.95000,-0.82493,-2.03831
5.00000,-0.83346,-2.04971
5.05000,-0.84173,-2.06281
5.10000,-0.84986,-2.07273
5.15000,-0.85813,-2.07902
5.20000,-0.86680,-2.09153
5.25000,-0.87506,-2.09334
5.30000,-0.88333,-2.09465
5.35000,-0.89200,-2.09638
5.40000,-0.90026,-2.09464
5.45000,-0.90853,-2.09425
5.50000,-0.91693,-2.09686
5.55000,-0.92520,-2.09604
5.60000,-0.93360,-2.09243
5.65000,-0.94200,-2.09262
5.70000,-0.95013,-2.09264
5.75000,-0.95866,-2.09395
5.80000,-0.96680,-2.09481
5.85000,-0.97493,-2.09303
5.90000,-0.98346,-2.09334
5.95000,-0.99173,-2.09600
6.00000,-1.00000,-2.09878
6.05000,-1.00853,-2.10217
6.10000,-1.01693,-2.10263
6.15000,-1.02506,-2.09707
6.20000,-1.03346,-2.09924
6.25000,-1.04200,-2.10569
6.30000,-1.05013,-2.11806
6.35000,-1.05853,-2.13377
6.40000,-1.06706,-2.14353
6.45000,-1.07520,-2.15857
6.50000,-1.08346,-2.16968
6.55000,-1.09186,-2.18545
6.60000,-1.10013,-2.19643
6.65000,-1.10840,-2.20710
6.70000,-1.11666,-2.21611
6.75000,-1.12480,-2.23048
6.80000,-1.13346,-2.24151
6.85000,-1.14173,-2.25488
6.90000,-1.14986,-2.26973
6.95000,-1.15853,-2.28217
7.00000,-1.16693,-2.29293
7.05000,-1.17493,-2.30590
7.10000,-1.18333,-2.31564
7.15000,-1.19186,-2.33291
7.20000,-1.20000,-2.34149
7.25000,-1.20826,-2.35763
7.30000,-1.21666,-2.36386
7.35000,-1.22506,-2.37925
7.40000,-1.23320,-2.38877
7.45000,-1.24173,-2.40287
7.50000,-1.25013,-2.41456
7.55000,-1.25826,-2.42565
7.60000,-1.26653,-2.43735
7.65000,-1.27493,-2.44862
7.70000,-1.28346,-2.46129
7.75000,-1.29173,-2.47555
7.80000,-1.30000,-2.48427
7.85000,-1.30840,-2.49819
7.90000,-1.31693,-2.50476
7.95000,-1.32506,-2.52524
8.00000,-1.33346,-2.52826
8.05000,-1.34200,-2.54839
8.10000,-1.35000,-2.55181
8.15000,-1.35826,-2.57111
8.20000,-1.36666,-2.57561
8.25000,-1.37506,-2.59397
8.30000,-1.38333,-2.60043
8.35000,-1.39173,-2.61620
8.40000,-1.40040,-2.62360
8.45000,-1.40853,-2.64059
8.50000,-1.41680,-2.64576
8.55000,-1.42533,-2.66586
8.60000,-1.43360,-2.66900
8.65000,-1.44200,-2.68819
8.70000,-1.45026,-2.69242
8.75000,-1.45866,-2.71045
8.80000,-1.46693,-2.71608
8.85000,-1.47520,-2.73256
8.90000,-1.48346,-2.73936
8.95000,-1.49186,-2.75235
9.00000,-1.50013,-2.76532
9.05000,-1.50826,-2.77022
9.10000,-1.51680,-2.79041
9.15000,-1.52506,-2.79273
9.20000,-1.53320,-2.81113
9.25000,-1.54173,-2.81497
9.30000,-1.55013,-2.83298
9.35000,-1.55840,-2.83859
9.40000,-1.56666,-2.85488
9.45000,-1.57533,-2.86133
9.50000,-1.58346,-2.87565
9.55000,-1.59173,-2.88166
9.60000,-1.60026,-2.90102
9.65000,-1.60853,-2.89792
9.70000,-1.61666,-2.92345
9.75000,-1.62493,-2.92019
9.80000,-1.63333,-2.94323
9.85000,-1.64173,-2.94487
9.90000,-1.64986,-2.96185
9.95000,-1.65813,-2.96822
10.00000,-1.66680,-2.98227
10.05000,-1.67506,-2.98889
10.10000,-1.68320,-3.00798
10.15000,-1.69173,-3.00798
10.20000,-1.70026,-3.03049
10.25000,-1.70840,-3.02729
10.30000,-1.71666,-3.05388
10.35000,-1.72533,-3.04770
10.40000,-1.73346,-3.07523
10.45000,-1.74160,-3.06770
10.50000,-1.75000,-3.09399
10.55000,-1.75840,-3.09043
10.60000,-1.76666,-3.11336
10.65000,-1.77493,-3.11350
10.70000,-1.78333,-3.13164
10.75000,-1.79160,-3.13655
10.80000,-1.79986,-3.14567
10.85000,-1.80826,-3.16172
10.90000,-1.81680,-3.16498
10.95000,-1.82520,-3.18622
11.00000,-1.83346,-3.18635
11.05000,-1.84186,-3.20560
11.10000,-1.85026,-3.20715
11.15000,-1.85853,-3.22765
11.20000,-1.86680,-3.22652
11.25000,-1.87533,-3.24811
11.30000,-1.88333,-3.24685
11.35000,-1.89160,-3.27214
11.40000,-1.90013,-3.25975
11.45000,-1.90840,-3.29819
11.50000,-1.91653,-3.27904
11.55000,-1.92493,-3.31424
11.60000,-1.93346,-3.30315
11.65000,-1.94173,-3.33183
11.70000,-1.95013,-3.32663
11.75000,-1.95853,-3.34794
11.80000,-1.96693,-3.34969
11.85000,-1.97520,-3.36882
11.90000,-1.98360,-3.36825
11.95000,-1.99200,-3.39342
12.00000,-2.00026,-3.38244
12.05000,-2.00853,-3.41772
12.10000,-2.01666,-3.40058
12.15000,-2.02506,-3.43560
12.20000,-2.03319,-3.42333
12.25000,-2.04146,-3.45270
12.30000,-2.05013,-3.44562
12.35000,-2.05853,-3.46977
12.40000,-2.06666,-3.46735
12.45000,-2.07506,-3.48902
12.50000,-2.08359,-3.48713
12.55000,-2.09186,-3.50867
12.60000,-2.10013,-3.50483
12.65000,-2.10879,-3.53005
12.70000,-2.11679,-3.52451
12.75000,-2.12506,-3.54827
12.80000,-2.13359,-3.54370
12.85000,-2.14186,-3.56556
12.90000,-2.15013,-3.56597
12.95000,-2.15839,-3.58169
13.00000,-2.16666,-3.58709
13.05000,-2.17519,-3.59870
13.10000,-2.18346,-3.60903
13.15000,-2.19159,-3.61336
13.20000,-2.20013,-3.63145
13.25000,-2.20853,-3.63058
13.30000,-2.21666,-3.65135
13.35000,-2.22519,-3.65016
13.40000,-2.23359,-3.67006
13.45000,-2.24173,-3.67002
13.50000,-2.25013,-3.68824
13.55000,-2.25866,-3.68835
13.60000,-2.26679,-3.70787
13.65000,-2.27493,-3.70499
13.70000,-2.28333,-3.72722
13.75000,-2.29173,-3.72073
13.80000,-2.29986,-3.74938
13.85000,-2.30826,-3.73932
13.90000,-2.31666,-3.76559
13.95000,-2.32479,-3.76010
14.00000,-2.33319,-3.78287
14.05000,-2.34159,-3.78035
14.10000,-2.35013,-3.80010
14.15000,-2.35839,-3.80007
14.20000,-2.36666,-3.81980
14.25000,-2.37506,-3.81728
14.30000,-2.38359,-3.83877
14.35000,-2.39186,-3.83657
14.40000,-2.40013,-3.85621
14.45000,-2.40866,-3.85529
14.50000,-2.41679,-3.87408
14.55000,-2.42493,-3.87446
14.60000,-2.43346,-3.89087
14.65000,-2.44186,-3.89466
14.70000,-2.44999,-3.90718
14.75000,-2.45826,-3.91161
14.80000,-2.46679,-3.92469
14.85000,-2.47506,-3.93093
14.90000,-2.48346,-3.94417
14.95000,-2.49199,-3.94724
15.00000,-2.50026,-3.96468
15.05000,-2.50853,-3.96591
15.10000,-2.51679,-3.98167
15.15000,-2.52519,-3.98439
15.20000,-2.53359,-3.99968
15.25000,-2.54186,-4.00302
15.30000,-2.54999,-4.01599
15.35000,-2.55866,-4.02149
15.40000,-2.56679,-4.03400
15.45000,-2.57493,-4.03800
15.50000,-2.58346,-4.05249
15.55000,-2.59173,-4.05587
15.60000,-2.59986,-4.06852
15.65000,-2.60839,-4.07329
15.70000,-2.61706,-4.08693
15.75000,-2.62506,-4.09265
15.80000,-2.63346,-4.10372
15.85000,-2.64199,-4.11034
15.90000,-2.65026,-4.12090
15.95000,-2.65839,-4.12773
16.00000,-2.66693,-4.13848
16.05000,-2.67519,-4.14556
16.10000,-2.68333,-4.15422
16.15000,-2.69159,-4.16328
16.20000,-2.69986,-4.17138
16.25000,-2.70839,-4.17997
16.30000,-2.71666,-4.18952
16.35000,-2.72479,-4.19767
16.40000,-2.73346,-4.20616
16.45000,-2.74173,-4.21516
16.50000,-2.74986,-4.22405
16.55000,-2.75839,-4.23110
16.60000,-2.76693,-4.24146
16.65000,-2.77506,-4.24785
16.70000,-2.78333,-4.25571
16.75000,-2.79199,-4.26408
16.80000,-2.80013,-4.27315
16.85000,-2.80826,-4.28050
16.90000,-2.81666,-4.28848
16.95000,-2.82506,-4.29735
17.00000,-2.83319,-4.30501
17.05000,-2.84159,-4.31369
17.10000,-2.84986,-4.32213
17.15000,-2.85826,-4.33018
17.20000,-2.86653,-4.33906
17.25000,-2.87493,-4.34455
17.30000,-2.88346,-4.35790
17.35000,-2.89186,-4.36121
17.40000,-2.89999,-4.37463
17.45000,-2.90839,-4.37903
17.50000,-2.91693,-4.38708
17.55000,-2.92506,-4.39826
17.60000,-2.93333,-4.40272
17.65000,-2.94186,-4.41340
17.70000,-2.95013,-4.41972
17.75000,-2.95826,-4.42877
17.80000,-2.96666,-4.43462
17.85000,-2.97519,-4.44502
17.90000,-2.98333,-4.45226
17.95000,-2.99159,-4.45952
18.00000,-3.00026,-4.46865
18.05000,-3.00839,-4.47592
18.10000,-3.01666,-4.48382
18.15000,-3.02519,-4.49254
18.20000,-3.03359,-4.49983
18.25000,-3.04186,-4.50813
18.30000,-3.05013,-4.51650
18.35000,-3.05866,-4.52422
18.40000,-3.06693,-4.53108
18.45000,-3.07519,-4.53918
18.50000,-3.08346,-4.54719
18.55000,-3.09199,-4.55410
18.60000,-3.10013,-4.56329
18.65000,-3.10826,-4.56883
18.70000,-3.11679,-4.57864
18.75000,-3.12506,-4.58441
18.80000,-3.13319,-4.59310
18.85000,-3.14173,-4.59942
18.90000,-3.15026,-4.60949
18.95000,-3.15853,-4.61559
19.00000,-3.16679,-4.62418
19.05000,-3.17533,-4.63177
19.10000,-3.18346,-4.63887
19.15000,-3.19186,-4.64640
19.20000,-3.20026,-4.65308
19.25000,-3.20866,-4.66169
19.30000,-3.21679,-4.66804
19.35000,-3.22506,-4.67574
19.40000,-3.23346,-4.68281
19.45000,-3.24186,-4.69085
19.50000,-3.25013,-4.69791
19.55000,-3.25826,-4.70561
19.60000,-3.26693,-4.71117
19.65000,-3.27519,-4.72015
19.70000,-3.28333,-4.72659
19.75000,-3.29173,-4.73230
19.80000,-3.30026,-4.74148
19.85000,-3.30839,-4.74774
19.90000,-3.31666,-4.75607
19.95000,-3.32533,-4.76126
20.00000,-3.33346,-4.77009
20.05000,-3.34159,-4.77519
20.10000,-3.34986,-4.78262
20.15000,-3.35826,-4.78918
20.20000,-3.36653,-4.79605
20.25000,-3.37493,-4.80316
20.30000,-3.38333,-4.81039
20.35000,-3.39159,-4.81614
20.40000,-3.39999,-4.82428
20.45000,-3.40839,-4.83087
20.50000,-3.41679,-4.83709
20.55000,-3.42506,-4.84436
20.60000,-3.43332,-4.85205
20.65000,-3.44172,-4.85828
20.70000,-3.45026,-4.86634
20.75000,-3.45839,-4.87360
20.80000,-3.46679,-4.88041
20.85000,-3.47519,-4.88662
20.90000,-3.48346,-4.89347
20.95000,-3.49159,-4.90116
21.00000,-3.50012,-4.90661
21.05000,-3.50852,-4.91578
21.10000,-3.51652,-4.92077
21.15000,-3.52492,-4.92953
21.20000,-3.53359,-4.93441
21.25000,-3.54172,-4.94368
21.30000,-3.54999,-4.94857
21.35000,-3.55852,-4.95898
21.40000,-3.56692,-4.96081
21.45000,-3.57519,-4.97271
21.50000,-3.58346,-4.97444
21.55000,-3.59199,-4.98858
21.60000,-3.60026,-4.98811
21.65000,-3.60852,-5.00077
21.70000,-3.61666,-5.00251
21.75000,-3.62532,-5.01207
21.80000,-3.63346,-5.01600
21.85000,-3.64159,-5.02398
21.90000,-3.65026,-5.02958
21.95000,-3.65852,-5.03770
22.00000,-3.66652,-5.04425
22.05000,-3.67506,-5.05064
22.10000,-3.68359,-5.05768
22.15000,-3.69172,-5.06431
22.20000,-3.70012,-5.07140
22.25000,-3.70866,-5.07674
22.30000,-3.71692,-5.08627
22.35000,-3.72506,-5.08748
22.40000,-3.73359,-5.10128
22.45000,-3.74186,-5.10169
22.50000,-3.75012,-5.11142
22.55000,-3.75839,-5.11694
22.60000,-3.76679,-5.12166
22.65000,-3.77519,-5.13104
22.70000,-3.78332,-5.13486
22.75000,-3.79146,-5.14162
22.80000,-3.79999,-5.14785
22.85000,-3.80839,-5.15487
22.90000,-3.81652,-5.15999
22.95000,-3.82506,-5.16728
23.00000,-3.83359,-5.17589
23.05000,-3.84172,-5.17584
23.10000,-3.84999,-5.18960
23.15000,-3.85866,-5.18715
23.20000,-3.86679,-5.20319
23.25000,-3.87506,-5.20071
23.30000,-3.88332,-5.21229
23.35000,-3.89172,-5.21319
23.40000,-3.89986,-5.22578
23.45000,-3.90826,-5.22324
23.50000,-3.91666,-5.23652
23.55000,-3.92492,-5.23783
23.60000,-3.93319,-5.24648
23.65000,-3.94159,-5.25225
23.70000,-3.94999,-5.25763
23.75000,-3.95839,-5.26500
23.80000,-3.96666,-5.27064
23.85000,-3.97506,-5.27633
23.90000,-3.98359,-5.28232
23.95000,-3.99172,-5.28913
24.00000,-3.99999,-5.29383
24.05000,-4.00852,-5.30116
24.10000,-4.01666,-5.30333
24.15000,-4.02479,-5.31541
24.20000,-4.03332,-5.31132
24.25000,-4.04186,-5.32925
24.30000,-4.04986,-5.32529
24.35000,-4.05826,-5.33818
24.40000,-4.06692,-5.33856
24.45000,-4.07519,-5.34883
24.50000,-4.08346,-5.35089
24.55000,-4.09199,-5.35963
24.60000,-4.10026,-5.36409
24.65000,-4.10852,-5.36710
24.70000,-4.11679,-5.37910
24.75000,-4.12532,-5.37697
24.80000,-4.13372,-5.39000
24.85000,-4.14186,-5.39092
24.90000,-4.14999,-5.39917
24.95000,-4.15852,-5.40117
25.00000,-4.16666,-5.41204
25.05000,-4.17479,-5.41032
25.10000,-4.18346,-5.42258
25.15000,-4.19172,-5.42406
25.20000,-4.19986,-5.43316
25.25000,-4.20839,-5.43488
25.30000,-4.21692,-5.44332
25.35000,-4.22519,-5.44787
25.40000,-4.23346,-5.45425
25.45000,-4.24199,-5.45890
25.50000,-4.25026,-5.46457
25.55000,-4.25852,-5.47075
25.60000,-4.26692,-5.47451
25.65000,-4.27519,-5.48035
25.70000,-4.28346,-5.48752
25.75000,-4.29172,-5.48611
25.80000,-4.29999,-5.50277
25.85000,-4.30852,-5.49448
25.90000,-4.31666,-5.51272
25.95000,-4.32466,-5.50740
26.00000,-4.33332,-5.52035
26.05000,-4.34159,-5.51864
26.10000,-4.34972,-5.53212
26.15000,-4.35826,-5.52770
26.20000,-4.36679,-5.54306
26.25000,-4.37506,-5.53898
26.30000,-4.38332,-5.55358
26.35000,-4.39186,-5.54859
26.40000,-4.40026,-5.56450
26.45000,-4.40839,-5.55930
26.50000,-4.41692,-5.57352
26.55000,-4.42519,-5.57109
26.60000,-4.43332,-5.58081
26.65000,-4.44172,-5.58271
26.70000,-4.44999,-5.59021
26.75000,-4.45826,-5.59159
26.80000,-4.46666,-5.59989
26.85000,-4.47492,-5.60016
26.90000,-4.48346,-5.60910
26.95000,-4.49186,-5.61264
27.00000,-4.50012,-5.62139
27.05000,-4.50839,-5.61907
27.10000,-4.51679,-5.63088
27.15000,-4.52506,-5.63050
27.20000,-4.53332,-5.63824
27.25000,-4.54186,-5.64083
27.30000,-4.55026,-5.64815
27.35000,-4.55839,-5.65115
27.40000,-4.56679,-5.65716
27.45000,-4.57519,-5.66041
27.50000,-4.58319,-5.66580
27.55000,-4.59159,-5.66866
27.60000,-4.60012,-5.67590
27.65000,-4.60839,-5.67825
27.70000,-4.61666,-5.68619
27.75000,-4.62532,-5.68803
27.80000,-4.63359,-5.69458
27.85000,-4.64186,-5.69650
27.90000,-4.65026,-5.70392
27.95000,-4.65866,-5.70636
28.00000,-4.66692,-5.71201
28.05000,-4.67519,-5.71478
28.10000,-4.68332,-5.71974
28.15000,-4.69186,-5.72248
28.20000,-4.70026,-5.72788
28.25000,-4.70839,-5.73139
28.30000,-4.71679,-5.73565
28.35000,-4.72519,-5.73902
28.40000,-4.73332,-5.74459
28.45000,-4.74185,-5.74749
28.50000,-4.75026,-5.75421
28.55000,-4.75852,-5.75592
28.60000,-4.76679,-5.76055
28.65000,-4.77532,-5.76476
28.70000,-4.78359,-5.76994
28.75000,-4.79185,-5.77193
28.80000,-4.80025,-5.77779
28.85000,-4.80852,-5.77850
28.90000,-4.81679,-5.78500
28.95000,-4.82506,-5.78751
29.00000,-4.83332,-5.79102
29.05000,-4.84172,-5.79682
29.10000,-4.84999,-5.79722
29.15000,-4.85812,-5.80703
29.20000,-4.86665,-5.80482
29.25000,-4.87506,-5.81516
29.30000,-4.88319,-5.81458
29.35000,-4.89185,-5.82170
29.40000,-4.90025,-5.82356
29.45000,-4.90825,-5.83025
29.50000,-4.91665,-5.82893
29.55000,-4.92532,-5.83866
29.60000,-4.93345,-5.83714
29.65000,-4.94159,-5.84627
29.70000,-4.94999,-5.84497
29.75000,-4.95839,-5.85418
29.80000,-4.96665,-5.85208
29.85000,-4.97505,-5.86116
29.90000,-4.98332,-5.86037
29.95000,-4.99159,-5.86805
30.00000,-4.99999,-5.86874
30.05000,-5.00825,-5.87686
30.10000,-5.01679,-5.87665
30.15000,-5.02532,-5.88601
30.20000,-5.03345,-5.88647
30.25000,-5.04185,-5.89300
30.30000,-5.05025,-5.89407
30.35000,-5.05839,-5.90147
30.40000,-5.06665,-5.90280
30.45000,-5.07532,-5.90885
30.50000,-5.08345,-5.91127
30.55000,-5.09159,-5.91713
30.60000,-5.10012,-5.91852
30.65000,-5.10839,-5.92593
30.70000,-5.11652,-5.92656
30.75000,-5.12492,-5.93261
30.80000,-5.13345,-5.93553
30.85000,-5.14172,-5.94162
30.90000,-5.14985,-5.94414
30.95000,-5.15839,-5.94954
31.00000,-5.16692,-5.95200
31.05000,-5.17519,-5.95658
31.10000,-5.18359,-5.96021
31.15000,-5.19199,-5.96464
31.20000,-5.20012,-5.96818
31.25000,-5.20839,-5.97262
31.30000,-5.21665,-5.97513
31.35000,-5.22519,-5.98090
31.40000,-5.23345,-5.98419
31.45000,-5.24159,-5.98856
31.50000,-5.25012,-5.99208
31.55000,-5.25839,-5.99717
31.60000,-5.26652,-5.99963
31.65000,-5.27505,-6.00479
31.70000,-5.28359,-6.00885
31.75000,-5.29172,-6.01252
31.80000,-5.30012,-6.01531
31.85000,-5.30865,-6.01967
31.90000,-5.31692,-6.02373
31.95000,-5.32519,-6.02632
32.00000,-5.33359,-6.03016
32.05000,-5.34172,-6.03332
32.10000,-5.35012,-6.03684
32.15000,-5.35839,-6.04084
32.20000,-5.36665,-6.04421
32.25000,-5.37519,-6.04838
32.30000,-5.38345,-6.05230
32.35000,-5.39159,-6.05549
32.40000,-5.40012,-6.05868
32.45000,-5.40852,-6.06348
32.50000,-5.41665,-6.06728
32.55000,-5.42519,-6.07170
32.60000,-5.43359,-6.07484
32.65000,-5.44172,-6.07942
32.70000,-5.45012,-6.08212
32.75000,-5.45865,-6.08689
32.80000,-5.46679,-6.09013
32.85000,-5.47505,-6.09410
32.90000,-5.48332,-6.09716
32.95000,-5.49172,-6.10107
33.00000,-5.49985,-6.10377
33.05000,-5.50825,-6.10855
33.10000,-5.51665,-6.11041
33.15000,-5.52492,-6.11511
33.20000,-5.53319,-6.11762
33.25000,-5.54159,-6.12298
33.30000,-5.55012,-6.12611
33.35000,-5.55852,-6.13044
33.40000,-5.56665,-6.13546
33.45000,-5.57519,-6.13744
33.50000,-5.58359,-6.14171
33.55000,-5.59172,-6.14459
33.60000,-5.59999,-6.14840
33.65000,-5.60852,-6.15047
33.70000,-5.61679,-6.15523
33.75000,-5.62492,-6.15742
33.80000,-5.63345,-6.16197
33.85000,-5.64172,-6.16461
33.90000,-5.64985,-6.16756
33.95000,-5.65825,-6.17041
34.00000,-5.66679,-6.17454
34.05000,-5.67492,-6.17686
34.10000,-5.68332,-6.18065
34.15000,-5.69172,-6.18534
34.20000,-5.70012,-6.18812
34.25000,-5.70839,-6.19164
34.30000,-5.71679,-6.19495
34.35000,-5.72519,-6.19907
34.40000,-5.73359,-6.20164
34.45000,-5.74185,-6.20614
34.50000,-5.74999,-6.20834
34.55000,-5.75852,-6.21311
34.60000,-5.76679,-6.21509
34.65000,-5.77492,-6.21916
34.70000,-5.78359,-6.22192
34.75000,-5.79185,-6.22680
34.80000,-5.79999,-6.22751
34.85000,-5.80852,-6.23288
34.90000,-5.81692,-6.23604
34.95000,-5.82505,-6.24010
35.00000,-5.83332,-6.24127
35.05000,-5.84199,-6.24803
35.10000,-5.85012,-6.24907
35.15000,-5.85852,-6.25395
35.20000,-5.86692,-6.25624
35.25000,-5.87519,-6.26104
35.30000,-5.88332,-6.26182
35.35000,-5.89172,-6.26600
35.40000,-5.89999,-6.26710
35.45000,-5.90839,-6.27267
35.50000,-5.91665,-6.27411
35.55000,-5.92492,-6.27731
35.60000,-5.93345,-6.27961
35.65000,-5.94185,-6.28546
35.70000,-5.94999,-6.28590
35.75000,-5.95852,-6.28841
35.80000,-5.96692,-6.29438
35.85000,-5.97505,-6.29469
35.90000,-5.98332,-6.29825
35.95000,-5.99185,-6.30187
