Time,Extension,Load
(sec),(mm),(N)
0.00000,0.00000,-0.45702
0.05000,-0.00107,-0.45734
0.10000,-0.00547,-0.46368
0.15000,-0.01453,-0.47941
0.20000,-0.02493,-0.50763
0.25000,-0.03560,-0.52809
0.30000,-0.04560,-0.55346
0.35000,-0.05480,-0.57004
0.40000,-0.06427,-0.59212
0.45000,-0.07307,-0.60608
0.50000,-0.08173,-0.62521
0.55000,-0.09053,-0.63914
0.60000,-0.09920,-0.65874
0.65000,-0.10760,-0.66968
0.70000,-0.11600,-0.68901
0.75000,-0.12453,-0.69949
0.80000,-0.13280,-0.71887
0.85000,-0.14120,-0.72841
0.90000,-0.14973,-0.74675
0.95000,-0.15813,-0.75867
1.00000,-0.16653,-0.77530
1.05000,-0.17480,-0.78719
1.10000,-0.18333,-0.80230
1.15000,-0.19187,-0.81568
1.20000,-0.19987,-0.83030
1.25000,-0.20813,-0.84172
1.30000,-0.21667,-0.85764
1.35000,-0.22480,-0.86902
1.40000,-0.23293,-0.88349
1.45000,-0.24160,-0.89523
1.50000,-0.24987,-0.91120
1.55000,-0.25800,-0.92220
1.60000,-0.26640,-0.93532
1.65000,-0.27493,-0.94916
1.70000,-0.28320,-0.96220
1.75000,-0.29147,-0.97481
1.80000,-0.30013,-0.98701
1.85000,-0.30840,-1.00079
1.90000,-0.31680,-1.01345
1.95000,-0.32520,-1.02594
2.00000,-0.33347,-1.03874
2.05000,-0.34173,-1.05057
2.10000,-0.35000,-1.06473
2.15000,-0.35827,-1.07536
2.20000,-0.36667,-1.08907
2.25000,-0.37493,-1.10089
2.30000,-0.38307,-1.11456
2.35000,-0.39160,-1.12537
2.40000,-0.39987,-1.13812
2.45000,-0.40800,-1.15153
2.50000,-0.41653,-1.16339
2.55000,-0.42507,-1.17590
2.60000,-0.43333,-1.18870
2.65000,-0.44160,-1.20101
2.70000,-0.45027,-1.21353
2.75000,-0.45840,-1.22525
2.80000,-0.46667,-1.23806
2.85000,-0.47507,-1.25030
2.90000,-0.48333,-1.26187
2.95000,-0.49160,-1.27418
3.00000,-0.50000,-1.28606
3.05000,-0.50827,-1.29947
3.10000,-0.51653,-1.30923
3.15000,-0.52480,-1.32379
3.20000,-0.53293,-1.33371
3.25000,-0.54160,-1.34777
3.30000,-0.54987,-1.35755
3.35000,-0.55813,-1.37249
3.40000,-0.56653,-1.38169
3.45000,-0.57507,-1.39685
3.50000,-0.58307,-1.40577
3.55000,-0.59147,-1.42075
3.60000,-0.60013,-1.43093
3.65000,-0.60827,-1.44369
3.70000,-0.61640,-1.45496
3.75000,-0.62480,-1.46680
3.80000,-0.63307,-1.47897
3.85000,-0.64120,-1.49011
3.90000,-0.64960,-1.50181
3.95000,-0.65800,-1.51494
4.00000,-0.66640,-1.52586
4.05000,-0.67480,-1.53840
4.10000,-0.68320,-1.55052
4.15000,-0.69160,-1.56238
4.20000,-0.70000,-1.57401
4.25000,-0.70813,-1.58526
4.30000,-0.71666,-1.59785
4.35000,-0.72506,-1.60959
4.40000,-0.73320,-1.62151
4.45000,-0.74160,-1.63253
4.50000,-0.75013,-1.64531
4.55000,-0.75826,-1.65639
4.60000,-0.76640,-1.66790
4.65000,-0.77493,-1.67941
4.70000,-0.78320,-1.69170
4.75000,-0.79133,-1.70273
4.80000,-0.79973,-1.71415
4.85000,-0.80826,-1.72730
4.90000,-0.81653,-1.73738
4.95000,-0.82493,-1.75101
5.00000,-0.83333,-1.76050
5.05000,-0.84160,-1.77421
5.10000,-0.85000,-1.78395
5.15000,-0.85840,-1.79737
5.20000,-0.86680,-1.80791
5.25000,-0.87506,-1.82002
5.30000,-0.88346,-1.83159
5.35000,-0.89160,-1.84367
5.40000,-0.90000,-1.85343
5.45000,-0.90826,-1.86797
5.50000,-0.91640,-1.87641
5.55000,-0.92493,-1.88954
5.60000,-0.93320,-1.90017
5.65000,-0.94146,-1.91195
5.70000,-0.94986,-1.92431
5.75000,-0.95826,-1.93432
5.80000,-0.96653,-1.94813
5.85000,-0.97480,-1.95701
5.90000,-0.98346,-1.97167
5.95000,-0.99160,-1.98053
6.00000,-1.00000,-1.99323
6.05000,-1.00853,-2.00572
6.10000,-1.01680,-2.01449
6.15000,-1.02493,-2.02815
6.20000,-1.03333,-2.03736
6.25000,-1.04160,-2.05035
6.30000,-1.04986,-2.05951
6.35000,-1.05813,-2.07288
6.40000,-1.06626,-2.08124
6.45000,-1.07493,-2.09628
6.50000,-1.08333,-2.10424
6.55000,-1.09146,-2.11777
6.60000,-1.10000,-2.12787
6.65000,-1.10840,-2.13972
6.70000,-1.11653,-2.15071
6.75000,-1.12480,-2.16153
6.80000,-1.13346,-2.17266
6.85000,-1.14160,-2.18480
6.90000,-1.14973,-2.19486
6.95000,-1.15813,-2.20576
7.00000,-1.16640,-2.21630
7.05000,-1.17466,-2.22865
7.10000,-1.18306,-2.23687
7.15000,-1.19146,-2.25196
7.20000,-1.19973,-2.25911
7.25000,-1.20800,-2.27323
7.30000,-1.21640,-2.28190
7.35000,-1.22493,-2.29456
7.40000,-1.23320,-2.30455
7.45000,-1.24146,-2.31585
7.50000,-1.24986,-2.32585
7.55000,-1.25840,-2.33748
7.60000,-1.26653,-2.34790
7.65000,-1.27493,-2.35867
7.70000,-1.28333,-2.37074
7.75000,-1.29146,-2.37928
7.80000,-1.29960,-2.39179
7.85000,-1.30813,-2.40134
7.90000,-1.31653,-2.41283
7.95000,-1.32480,-2.42401
8.00000,-1.33320,-2.43414
8.05000,-1.34173,-2.44511
8.10000,-1.35000,-2.45625
8.15000,-1.35826,-2.46450
8.20000,-1.36680,-2.47758
8.25000,-1.37520,-2.48656
8.30000,-1.38346,-2.49776
8.35000,-1.39173,-2.50646
8.40000,-1.40013,-2.51569
8.45000,-1.40853,-2.52446
8.50000,-1.41666,-2.53528
8.55000,-1.42493,-2.53885
8.60000,-1.43346,-2.50389
8.65000,-1.44160,-2.43246
8.70000,-1.44973,-2.45951
8.75000,-1.45826,-2.47645
8.80000,-1.46653,-2.48920
8.85000,-1.47466,-2.48798
8.90000,-1.48320,-2.50008
8.95000,-1.49173,-2.45843
9.00000,-1.49986,-2.36200
9.05000,-1.50826,-2.39032
9.10000,-1.51680,-2.40143
9.15000,-1.52493,-2.41302
9.20000,-1.53320,-2.42827
9.25000,-1.54160,-2.43956
9.30000,-1.54986,-2.45967
9.35000,-1.55813,-2.46976
9.40000,-1.56640,-2.48847
9.45000,-1.57480,-2.50025
9.50000,-1.58306,-2.51775
9.55000,-1.59146,-2.53043
9.60000,-1.59960,-2.54632
9.65000,-1.60826,-2.55749
9.70000,-1.61666,-2.57214
9.75000,-1.62466,-2.58453
9.80000,-1.63320,-2.59841
9.85000,-1.64160,-2.60830
9.90000,-1.64973,-2.62387
9.95000,-1.65813,-2.63324
10.00000,-1.66680,-2.64810
10.05000,-1.67493,-2.65589
10.10000,-1.68320,-2.67107
10.15000,-1.69160,-2.68150
10.20000,-1.70000,-2.69354
10.25000,-1.70813,-2.70255
10.30000,-1.71640,-2.71465
10.35000,-1.72480,-2.72447
10.40000,-1.73293,-2.73580
10.45000,-1.74133,-2.74691
10.50000,-1.74973,-2.75570
10.55000,-1.75826,-2.76748
10.60000,-1.76666,-2.77711
10.65000,-1.77493,-2.78944
10.70000,-1.78333,-2.79615
10.75000,-1.79186,-2.80746
10.80000,-1.80000,-2.81311
10.85000,-1.80826,-2.82476
10.90000,-1.81693,-2.83245
10.95000,-1.82493,-2.84068
11.00000,-1.83306,-2.84794
11.05000,-1.84160,-2.85751
11.10000,-1.85000,-2.86939
11.15000,-1.85800,-2.87665
11.20000,-1.86640,-2.88735
11.25000,-1.87493,-2.89757
11.30000,-1.88320,-2.90762
11.35000,-1.89160,-2.91927
11.40000,-1.90000,-2.92883
11.45000,-1.90840,-2.93950
11.50000,-1.91666,-2.94752
11.55000,-1.92506,-2.95912
11.60000,-1.93346,-2.96778
11.65000,-1.94173,-2.97938
11.70000,-1.95000,-2.98724
11.75000,-1.95813,-2.99723
11.80000,-1.96653,-3.00460
11.85000,-1.97466,-3.01762
11.90000,-1.98293,-3.02380
11.95000,-1.99160,-3.03714
12.00000,-2.00000,-3.04408
12.05000,-2.00826,-3.05738
12.10000,-2.01680,-3.06048
12.15000,-2.02520,-3.07549
12.20000,-2.03333,-3.07910
12.25000,-2.04160,-3.09198
12.30000,-2.05026,-3.09719
12.35000,-2.05826,-3.10866
12.40000,-2.06653,-3.11436
12.45000,-2.07493,-3.12585
12.50000,-2.08333,-3.13466
12.55000,-2.09159,-3.13739
12.60000,-2.09986,-3.15696
12.65000,-2.10826,-3.15098
12.70000,-2.11666,-3.17380
12.75000,-2.12493,-3.17088
12.80000,-2.13319,-3.19065
12.85000,-2.14173,-3.18776
12.90000,-2.14999,-3.20739
12.95000,-2.15813,-3.20527
13.00000,-2.16666,-3.22310
13.05000,-2.17519,-3.22194
13.10000,-2.18333,-3.23892
13.15000,-2.19159,-3.23933
13.20000,-2.20026,-3.25624
13.25000,-2.20826,-3.25414
13.30000,-2.21653,-3.27227
13.35000,-2.22493,-3.27189
13.40000,-2.23333,-3.28966
13.45000,-2.24146,-3.29133
13.50000,-2.24973,-3.30418
13.55000,-2.25813,-3.31164
13.60000,-2.26626,-3.31955
13.65000,-2.27466,-3.32846
13.70000,-2.28306,-3.33877
13.75000,-2.29159,-3.34367
13.80000,-2.29999,-3.35930
13.85000,-2.30813,-3.36337
13.90000,-2.31653,-3.37362
13.95000,-2.32506,-3.38196
14.00000,-2.33319,-3.39148
14.05000,-2.34146,-3.40011
14.10000,-2.34999,-3.40909
14.15000,-2.35826,-3.41681
14.20000,-2.36639,-3.42943
14.25000,-2.37479,-3.43395
14.30000,-2.38319,-3.44775
14.35000,-2.39133,-3.45045
14.40000,-2.39959,-3.46744
14.45000,-2.40826,-3.46904
14.50000,-2.41666,-3.48521
14.55000,-2.42479,-3.48753
14.60000,-2.43346,-3.50437
14.65000,-2.44173,-3.50499
14.70000,-2.44999,-3.52171
14.75000,-2.45826,-3.52281
14.80000,-2.46679,-3.54071
14.85000,-2.47506,-3.53942
14.90000,-2.48333,-3.55928
14.95000,-2.49159,-3.55695
15.00000,-2.49999,-3.57504
15.05000,-2.50826,-3.57431
15.10000,-2.51639,-3.59349
15.15000,-2.52493,-3.59073
15.20000,-2.53319,-3.61138
15.25000,-2.54133,-3.60706
15.30000,-2.54986,-3.62726
15.35000,-2.55853,-3.62524
15.40000,-2.56653,-3.64426
15.45000,-2.57479,-3.64210
15.50000,-2.58346,-3.65998
15.55000,-2.59159,-3.66064
15.60000,-2.59986,-3.67623
15.65000,-2.60826,-3.67654
15.70000,-2.61666,-3.69376
15.75000,-2.62493,-3.69506
15.80000,-2.63319,-3.70880
15.85000,-2.64146,-3.71103
15.90000,-2.64986,-3.72463
15.95000,-2.65813,-3.72831
16.00000,-2.66626,-3.73935
16.05000,-2.67493,-3.74447
16.10000,-2.68333,-3.75644
16.15000,-2.69146,-3.76093
16.20000,-2.69999,-3.77062
16.25000,-2.70839,-3.77819
16.30000,-2.71639,-3.78699
16.35000,-2.72479,-3.79426
16.40000,-2.73346,-3.80120
16.45000,-2.74159,-3.80983
16.50000,-2.74986,-3.81844
16.55000,-2.75826,-3.82440
16.60000,-2.76653,-3.83455
16.65000,-2.77466,-3.84018
16.70000,-2.78293,-3.84890
16.75000,-2.79133,-3.85556
16.80000,-2.79959,-3.86365
16.85000,-2.80799,-3.87248
16.90000,-2.81639,-3.87713
16.95000,-2.82493,-3.88650
17.00000,-2.83333,-3.89469
17.05000,-2.84146,-3.90574
17.10000,-2.84999,-3.90689
17.15000,-2.85839,-3.91887
17.20000,-2.86653,-3.92475
17.25000,-2.87479,-3.93451
17.30000,-2.88333,-3.93849
17.35000,-2.89159,-3.95001
17.40000,-2.89973,-3.95386
17.45000,-2.90826,-3.96296
17.50000,-2.91653,-3.96948
17.55000,-2.92466,-3.97926
17.60000,-2.93306,-3.98306
17.65000,-2.94159,-3.99397
17.70000,-2.94986,-3.99784
17.75000,-2.95813,-4.00909
17.80000,-2.96679,-4.01507
17.85000,-2.97506,-4.02202
17.90000,-2.98333,-4.03107
17.95000,-2.99173,-4.03666
18.00000,-3.00013,-4.04395
18.05000,-3.00839,-4.05243
18.10000,-3.01666,-4.05692
18.15000,-3.02493,-4.07036
18.20000,-3.03346,-4.07014
18.25000,-3.04159,-4.08283
18.30000,-3.04973,-4.08503
18.35000,-3.05826,-4.09667
18.40000,-3.06653,-4.10105
18.45000,-3.07466,-4.10957
18.50000,-3.08319,-4.11354
18.55000,-3.09186,-4.12663
18.60000,-3.09999,-4.12570
18.65000,-3.10826,-4.14274
18.70000,-3.11679,-4.13755
18.75000,-3.12506,-4.15922
18.80000,-3.13333,-4.14917
18.85000,-3.14186,-4.17220
18.90000,-3.15013,-4.16588
18.95000,-3.15826,-4.18428
19.00000,-3.16653,-4.17966
19.05000,-3.17493,-4.19575
19.10000,-3.18346,-4.19506
19.15000,-3.19159,-4.20854
19.20000,-3.19973,-4.20752
19.25000,-3.20839,-4.22007
19.30000,-3.21666,-4.22322
19.35000,-3.22466,-4.23222
19.40000,-3.23319,-4.23511
19.45000,-3.24173,-4.24568
19.50000,-3.24986,-4.25050
19.55000,-3.25813,-4.25701
19.60000,-3.26679,-4.26351
19.65000,-3.27493,-4.26961
19.70000,-3.28306,-4.27692
19.75000,-3.29133,-4.28155
19.80000,-3.29973,-4.28823
19.85000,-3.30799,-4.29581
19.90000,-3.31639,-4.30107
19.95000,-3.32479,-4.30829
20.00000,-3.33319,-4.31433
20.05000,-3.34159,-4.32119
20.10000,-3.34986,-4.32709
20.15000,-3.35826,-4.33179
20.20000,-3.36666,-4.34043
20.25000,-3.37479,-4.34427
20.30000,-3.38319,-4.35378
20.35000,-3.39173,-4.35414
20.40000,-3.39999,-4.36905
20.45000,-3.40826,-4.36533
20.50000,-3.41679,-4.38016
20.55000,-3.42493,-4.37799
20.60000,-3.43306,-4.39218
20.65000,-3.44146,-4.38784
20.70000,-3.44986,-4.40460
20.75000,-3.45799,-4.40055
20.80000,-3.46639,-4.41510
20.85000,-3.47506,-4.41427
20.90000,-3.48332,-4.42643
20.95000,-3.49146,-4.42856
21.00000,-3.49999,-4.43581
21.05000,-3.50839,-4.44097
21.10000,-3.51666,-4.44825
21.15000,-3.52506,-4.45487
21.20000,-3.53346,-4.45730
21.25000,-3.54172,-4.46610
21.30000,-3.54999,-4.46880
21.35000,-3.55826,-4.47730
21.40000,-3.56679,-4.47924
21.45000,-3.57492,-4.48740
21.50000,-3.58306,-4.49138
21.55000,-3.59172,-4.49733
21.60000,-3.59999,-4.50261
21.65000,-3.60812,-4.50879
21.70000,-3.61652,-4.51430
21.75000,-3.62519,-4.51933
21.80000,-3.63332,-4.52642
21.85000,-3.64159,-4.53037
21.90000,-3.65026,-4.53677
21.95000,-3.65839,-4.54171
22.00000,-3.66666,-4.54485
22.05000,-3.67506,-4.55393
22.10000,-3.68332,-4.55584
22.15000,-3.69159,-4.56290
22.20000,-3.69986,-4.56741
22.25000,-3.70812,-4.57310
22.30000,-3.71666,-4.57695
22.35000,-3.72479,-4.58342
22.40000,-3.73292,-4.58798
22.45000,-3.74159,-4.59286
22.50000,-3.74999,-4.60044
22.55000,-3.75812,-4.60190
22.60000,-3.76652,-4.61149
22.65000,-3.77519,-4.61394
22.70000,-3.78319,-4.62111
22.75000,-3.79159,-4.62416
22.80000,-3.80012,-4.63083
22.85000,-3.80826,-4.63464
22.90000,-3.81652,-4.64036
22.95000,-3.82479,-4.64324
23.00000,-3.83319,-4.64916
23.05000,-3.84132,-4.65388
23.10000,-3.84972,-4.65952
23.15000,-3.85799,-4.66261
23.20000,-3.86639,-4.66858
23.25000,-3.87466,-4.67386
23.30000,-3.88306,-4.67916
23.35000,-3.89159,-4.68285
23.40000,-3.89986,-4.68852
23.45000,-3.90812,-4.69483
23.50000,-3.91652,-4.69744
23.55000,-3.92506,-4.70313
23.60000,-3.93319,-4.70930
23.65000,-3.94159,-4.71353
23.70000,-3.94999,-4.71729
23.75000,-3.95812,-4.72354
23.80000,-3.96626,-4.72636
23.85000,-3.97492,-4.73168
23.90000,-3.98332,-4.73683
23.95000,-3.99132,-4.73991
24.00000,-3.99986,-4.74649
24.05000,-4.00839,-4.75020
24.10000,-4.01652,-4.75635
24.15000,-4.02492,-4.75723
24.20000,-4.03346,-4.76651
24.25000,-4.04172,-4.76704
24.30000,-4.04999,-4.77335
24.35000,-4.05839,-4.77547
24.40000,-4.06679,-4.78388
24.45000,-4.07519,-4.78460
24.50000,-4.08332,-4.79173
24.55000,-4.09146,-4.79327
24.60000,-4.09999,-4.80013
24.65000,-4.10826,-4.80152
24.70000,-4.11639,-4.80764
24.75000,-4.12492,-4.81086
24.80000,-4.13319,-4.81527
24.85000,-4.14132,-4.81807
24.90000,-4.14986,-4.82302
24.95000,-4.15839,-4.82851
25.00000,-4.16652,-4.83138
25.05000,-4.17492,-4.83606
25.10000,-4.18346,-4.83745
25.15000,-4.19172,-4.84650
25.20000,-4.19999,-4.84460
25.25000,-4.20839,-4.85162
25.30000,-4.21666,-4.85328
25.35000,-4.22492,-4.85862
25.40000,-4.23319,-4.85975
25.45000,-4.24146,-4.86469
25.50000,-4.24999,-4.86871
25.55000,-4.25826,-4.87396
25.60000,-4.26626,-4.87419
25.65000,-4.27492,-4.88189
25.70000,-4.28319,-4.88348
25.75000,-4.29132,-4.88981
25.80000,-4.29986,-4.88988
25.85000,-4.30839,-4.89676
25.90000,-4.31652,-4.90139
25.95000,-4.32479,-4.90173
26.00000,-4.33346,-4.90696
26.05000,-4.34172,-4.91156
26.10000,-4.34986,-4.91353
26.15000,-4.35826,-4.91778
26.20000,-4.36652,-4.92111
26.25000,-4.37479,-4.92748
26.30000,-4.38319,-4.92400
26.35000,-4.39146,-4.93832
26.40000,-4.39972,-4.93207
26.45000,-4.40812,-4.94419
26.50000,-4.41639,-4.94155
26.55000,-4.42492,-4.95013
26.60000,-4.43332,-4.95118
26.65000,-4.44146,-4.95938
26.70000,-4.44986,-4.95724
26.75000,-4.45839,-4.96747
26.80000,-4.46652,-4.96524
26.85000,-4.47479,-4.97481
26.90000,-4.48346,-4.96882
26.95000,-4.49159,-4.98673
27.00000,-4.49972,-4.97595
27.05000,-4.50826,-4.99090
27.10000,-4.51666,-4.98692
27.15000,-4.52466,-4.99782
27.20000,-4.53306,-4.99558
27.25000,-4.54172,-5.00429
27.30000,-4.54986,-5.00483
27.35000,-4.55826,-5.01412
27.40000,-4.56679,-5.01163
27.45000,-4.57506,-5.02297
27.50000,-4.58332,-5.01782
27.55000,-4.59172,-5.03335
27.60000,-4.60012,-5.02494
27.65000,-4.60839,-5.03866
27.70000,-4.61666,-5.03564
27.75000,-4.62479,-5.04441
27.80000,-4.63332,-5.04317
27.85000,-4.64159,-5.05062
27.90000,-4.64986,-5.05329
27.95000,-4.65826,-5.05687
28.00000,-4.66666,-5.06127
28.05000,-4.67479,-5.06443
28.10000,-4.68332,-5.06473
28.15000,-4.69186,-5.07842
28.20000,-4.69999,-5.06809
28.25000,-4.70839,-5.08402
28.30000,-4.71692,-5.08085
28.35000,-4.72506,-5.08753
28.40000,-4.73332,-5.08782
28.45000,-4.74172,-5.09539
28.50000,-4.74999,-5.09574
28.55000,-4.75826,-5.10144
28.60000,-4.76652,-5.10067
28.65000,-4.77479,-5.10793
28.70000,-4.78319,-5.11037
28.75000,-4.79145,-5.11199
28.80000,-4.79959,-5.11626
28.85000,-4.80812,-5.11989
28.90000,-4.81666,-5.12649
28.95000,-4.82479,-5.12479
29.00000,-4.83332,-5.13320
29.05000,-4.84172,-5.13361
29.10000,-4.84972,-5.14003
29.15000,-4.85812,-5.13694
29.20000,-4.86679,-5.14536
29.25000,-4.87492,-5.14752
29.30000,-4.88305,-5.14603
29.35000,-4.89159,-5.15661
29.40000,-4.89985,-5.15147
29.45000,-4.90812,-5.16362
29.50000,-4.91652,-5.15861
29.55000,-4.92479,-5.16793
29.60000,-4.93305,-5.16539
29.65000,-4.94145,-5.17472
29.70000,-4.94972,-5.17120
29.75000,-4.95825,-5.18073
29.80000,-4.96679,-5.17789
29.85000,-4.97492,-5.19068
29.90000,-4.98332,-5.17663
29.95000,-4.99172,-5.19916
30.00000,-4.99985,-5.18521
30.05000,-5.00812,-5.20233
30.10000,-5.01679,-5.19271
30.15000,-5.02479,-5.20596
30.20000,-5.03305,-5.20009
30.25000,-5.04159,-5.21105
30.30000,-5.04985,-5.20545
30.35000,-5.05799,-5.21769
30.40000,-5.06639,-5.21044
30.45000,-5.07492,-5.22392
30.50000,-5.08319,-5.21728
30.55000,-5.09145,-5.22531
30.60000,-5.09999,-5.22969
30.65000,-5.10839,-5.22775
30.70000,-5.11665,-5.23692
30.75000,-5.12505,-5.23436
30.80000,-5.13332,-5.24196
30.85000,-5.14159,-5.24087
30.90000,-5.14985,-5.24642
30.95000,-5.15812,-5.24616
31.00000,-5.16665,-5.25204
31.05000,-5.17492,-5.25351
31.10000,-5.18305,-5.25731
31.15000,-5.19159,-5.25394
31.20000,-5.19985,-5.27031
31.25000,-5.20812,-5.25588
31.30000,-5.21652,-5.27303
31.35000,-5.22505,-5.26563
31.40000,-5.23319,-5.27622
31.45000,-5.24159,-5.27124
31.50000,-5.25012,-5.27856
31.55000,-5.25839,-5.27891
31.60000,-5.26652,-5.28387
31.65000,-5.27492,-5.28237
31.70000,-5.28319,-5.28985
31.75000,-5.29145,-5.28729
31.80000,-5.29985,-5.29629
31.85000,-5.30812,-5.29260
31.90000,-5.31652,-5.29998
31.95000,-5.32479,-5.30142
32.00000,-5.33292,-5.30324
32.05000,-5.34159,-5.30482
32.10000,-5.34999,-5.31056
32.15000,-5.35812,-5.31206
32.20000,-5.36665,-5.31533
32.25000,-5.37505,-5.31507
32.30000,-5.38319,-5.32411
32.35000,-5.39145,-5.32085
32.40000,-5.40012,-5.32592
32.45000,-5.40825,-5.33003
32.50000,-5.41652,-5.33005
32.55000,-5.42492,-5.33481
32.60000,-5.43319,-5.33494
32.65000,-5.44132,-5.33887
32.70000,-5.44972,-5.34248
32.75000,-5.45812,-5.34119
32.80000,-5.46639,-5.34828
32.85000,-5.47479,-5.34762
32.90000,-5.48305,-5.35426
32.95000,-5.49159,-5.35158
33.00000,-5.49999,-5.35899
33.05000,-5.50812,-5.36157
33.10000,-5.51665,-5.36015
33.15000,-5.52492,-5.36563
33.20000,-5.53305,-5.36855
33.25000,-5.54145,-5.36851
33.30000,-5.55012,-5.37359
33.35000,-5.55812,-5.37332
33.40000,-5.56639,-5.37971
33.45000,-5.57492,-5.37713
33.50000,-5.58319,-5.38382
33.55000,-5.59132,-5.38193
33.60000,-5.59972,-5.38806
33.65000,-5.60839,-5.38826
33.70000,-5.61652,-5.39242
33.75000,-5.62492,-5.39292
33.80000,-5.63345,-5.39929
33.85000,-5.64172,-5.39759
33.90000,-5.64999,-5.40125
33.95000,-5.65825,-5.40290
34.00000,-5.66665,-5.40521
34.05000,-5.67505,-5.40628
34.10000,-5.68332,-5.40884
34.15000,-5.69159,-5.41269
34.20000,-5.70012,-5.41324
34.25000,-5.70839,-5.41680
34.30000,-5.71625,-5.41779
34.35000,-5.72492,-5.41982
34.40000,-5.73319,-5.42276
34.45000,-5.74145,-5.42224
34.50000,-5.74999,-5.42808
34.55000,-5.75839,-5.42934
34.60000,-5.76652,-5.43062
34.65000,-5.77492,-5.43207
34.70000,-5.78345,-5.43660
34.75000,-5.79172,-5.43645
34.80000,-5.79999,-5.43916
34.85000,-5.80852,-5.44116
34.90000,-5.81679,-5.44449
34.95000,-5.82492,-5.44289
35.00000,-5.83319,-5.44677
35.05000,-5.84145,-5.44752
35.10000,-5.84985,-5.45039
35.15000,-5.85812,-5.45063
35.20000,-5.86625,-5.45357
35.25000,-5.87492,-5.45497
35.30000,-5.88332,-5.45715
35.35000,-5.89145,-5.46000
35.40000,-5.89999,-5.46132
35.45000,-5.90852,-5.46358
35.50000,-5.91652,-5.46609
35.55000,-5.92492,-5.46678
35.60000,-5.93345,-5.46973
35.65000,-5.94145,-5.47014
35.70000,-5.94972,-5.47123
35.75000,-5.95812,-5.47377
35.80000,-5.96639,-5.47453
35.85000,-5.97465,-5.47626
35.90000,-5.98319,-5.47907
35.95000,-5.99145,-5.48033
