Time,Extension,Load
(sec),(mm),(N)
0.00000,-0.00013,-0.50341
0.05000,-0.00107,-0.50771
0.10000,-0.00480,-0.50681
0.15000,-0.01373,-0.52425
0.20000,-0.02440,-0.54400
0.25000,-0.03507,-0.56669
0.30000,-0.04520,-0.58462
0.35000,-0.05480,-0.60354
0.40000,-0.06413,-0.61733
0.45000,-0.07293,-0.63577
0.50000,-0.08187,-0.64555
0.55000,-0.09067,-0.66413
0.60000,-0.09920,-0.67536
0.65000,-0.10760,-0.69105
0.70000,-0.11627,-0.70265
0.75000,-0.12467,-0.71664
0.80000,-0.13320,-0.73056
0.85000,-0.14160,-0.74153
0.90000,-0.15000,-0.75471
0.95000,-0.15853,-0.76644
1.00000,-0.16693,-0.78204
1.05000,-0.17507,-0.79103
1.10000,-0.18360,-0.80477
1.15000,-0.19187,-0.81710
1.20000,-0.20000,-0.82926
1.25000,-0.20840,-0.83845
1.30000,-0.21680,-0.85337
1.35000,-0.22493,-0.86259
1.40000,-0.23320,-0.87756
1.45000,-0.24187,-0.88507
1.50000,-0.25027,-0.90228
1.55000,-0.25853,-0.90896
1.60000,-0.26707,-0.92565
1.65000,-0.27533,-0.93035
1.70000,-0.28360,-0.94767
1.75000,-0.29200,-0.95464
1.80000,-0.30027,-0.97042
1.85000,-0.30867,-0.97820
1.90000,-0.31707,-0.99262
1.95000,-0.32507,-1.00115
2.00000,-0.33347,-1.01385
2.05000,-0.34173,-1.02238
2.10000,-0.34987,-1.03614
2.15000,-0.35827,-1.04546
2.20000,-0.36680,-1.05788
2.25000,-0.37480,-1.06854
2.30000,-0.38333,-1.07975
2.35000,-0.39200,-1.08987
2.40000,-0.40013,-1.10177
2.45000,-0.40840,-1.11189
2.50000,-0.41707,-1.12311
2.55000,-0.42533,-1.13507
2.60000,-0.43347,-1.14468
2.65000,-0.44200,-1.15536
2.70000,-0.45027,-1.16662
2.75000,-0.45867,-1.17698
2.80000,-0.46693,-1.18643
2.85000,-0.47520,-1.19851
2.90000,-0.48360,-1.20743
2.95000,-0.49187,-1.22015
3.00000,-0.50000,-1.22719
3.05000,-0.50840,-1.24038
3.10000,-0.51680,-1.24820
3.15000,-0.52493,-1.26087
3.20000,-0.53347,-1.26805
3.25000,-0.54200,-1.28243
3.30000,-0.55027,-1.29023
3.35000,-0.55840,-1.30291
3.40000,-0.56693,-1.30970
3.45000,-0.57533,-1.32347
3.50000,-0.58347,-1.32992
3.55000,-0.59187,-1.34323
3.60000,-0.60027,-1.34971
3.65000,-0.60840,-1.36381
3.70000,-0.61667,-1.37065
3.75000,-0.62507,-1.38378
3.80000,-0.63333,-1.39108
3.85000,-0.64160,-1.40129
3.90000,-0.65013,-1.41330
3.95000,-0.65853,-1.42069
4.00000,-0.66693,-1.43434
4.05000,-0.67520,-1.44148
4.10000,-0.68346,-1.45598
4.15000,-0.69200,-1.45943
4.20000,-0.70013,-1.47560
4.25000,-0.70840,-1.47980
4.30000,-0.71706,-1.49550
4.35000,-0.72533,-1.49899
4.40000,-0.73346,-1.51528
4.45000,-0.74186,-1.51967
4.50000,-0.75026,-1.53440
4.55000,-0.75826,-1.53947
4.60000,-0.76666,-1.55297
4.65000,-0.77520,-1.55931
4.70000,-0.78346,-1.57243
4.75000,-0.79173,-1.57903
4.80000,-0.80026,-1.59239
4.85000,-0.80866,-1.60015
4.90000,-0.81680,-1.61127
4.95000,-0.82533,-1.61986
5.00000,-0.83360,-1.62933
5.05000,-0.84200,-1.64063
5.10000,-0.85026,-1.64840
5.15000,-0.85840,-1.66029
5.20000,-0.86693,-1.66758
5.25000,-0.87520,-1.68087
5.30000,-0.88333,-1.68637
5.35000,-0.89173,-1.69902
5.40000,-0.90013,-1.70522
5.45000,-0.90826,-1.71838
5.50000,-0.91666,-1.72460
5.55000,-0.92546,-1.73815
5.60000,-0.93360,-1.74599
5.65000,-0.94186,-1.75583
5.70000,-0.95026,-1.76481
5.75000,-0.95853,-1.77373
5.80000,-0.96680,-1.78478
5.85000,-0.97533,-1.79293
5.90000,-0.98360,-1.80439
5.95000,-0.99186,-1.81142
6.00000,-1.00013,-1.82289
6.05000,-1.00840,-1.82988
6.10000,-1.01666,-1.84043
6.15000,-1.02506,-1.84837
6.20000,-1.03320,-1.85978
6.25000,-1.04186,-1.86674
6.30000,-1.05040,-1.88034
6.35000,-1.05853,-1.88620
6.40000,-1.06693,-1.89831
6.45000,-1.07546,-1.90412
6.50000,-1.08360,-1.91669
6.55000,-1.09186,-1.92343
6.60000,-1.10040,-1.93406
6.65000,-1.10866,-1.94281
6.70000,-1.11666,-1.95296
6.75000,-1.12506,-1.96194
6.80000,-1.13360,-1.96940
6.85000,-1.14173,-1.98009
6.90000,-1.15000,-1.98818
6.95000,-1.15840,-1.99833
7.00000,-1.16666,-2.00628
7.05000,-1.17493,-2.01716
7.10000,-1.18333,-2.02499
7.15000,-1.19186,-2.03501
7.20000,-1.20026,-2.04288
7.25000,-1.20840,-2.05266
7.30000,-1.21680,-2.06109
7.35000,-1.22533,-2.07035
7.40000,-1.23360,-2.07984
7.45000,-1.24186,-2.08743
7.50000,-1.25040,-2.09605
7.55000,-1.25853,-2.10083
7.60000,-1.26653,-2.10199
7.65000,-1.27506,-2.09932
7.70000,-1.28360,-2.10316
7.75000,-1.29160,-2.10486
7.80000,-1.29986,-2.10423
7.85000,-1.30853,-2.10343
7.90000,-1.31680,-2.10247
7.95000,-1.32520,-2.10166
8.00000,-1.33360,-2.10093
8.05000,-1.34200,-2.10399
8.10000,-1.35040,-2.10603
8.15000,-1.35866,-2.10689
8.20000,-1.36693,-2.11005
8.25000,-1.37533,-2.11042
8.30000,-1.38360,-2.11025
8.35000,-1.39173,-2.10807
8.40000,-1.40026,-2.10830
8.45000,-1.40853,-2.10726
8.50000,-1.41666,-2.10635
8.55000,-1.42520,-2.10923
8.60000,-1.43346,-2.11230
8.65000,-1.44160,-2.11415
8.70000,-1.45013,-2.11625
8.75000,-1.45866,-2.11834
8.80000,-1.46680,-2.12158
8.85000,-1.47520,-2.12359
8.90000,-1.48386,-2.12344
8.95000,-1.49200,-2.11758
9.00000,-1.50026,-2.11974
9.05000,-1.50866,-2.11893
9.10000,-1.51693,-2.12540
9.15000,-1.52520,-2.13850
9.20000,-1.53346,-2.15180
9.25000,-1.54186,-2.16512
9.30000,-1.55026,-2.17775
9.35000,-1.55840,-2.18987
9.40000,-1.56653,-2.20164
9.45000,-1.57506,-2.21226
9.50000,-1.58360,-2.22426
9.55000,-1.59173,-2.23594
9.60000,-1.60013,-2.24749
9.65000,-1.60866,-2.25834
9.70000,-1.61693,-2.27009
9.75000,-1.62506,-2.27947
9.80000,-1.63360,-2.28968
9.85000,-1.64186,-2.30094
9.90000,-1.65013,-2.30987
9.95000,-1.65840,-2.32162
10.00000,-1.66693,-2.33074
10.05000,-1.67493,-2.34167
10.10000,-1.68320,-2.35041
10.15000,-1.69173,-2.36125
10.20000,-1.70000,-2.36951
10.25000,-1.70840,-2.38077
10.30000,-1.71680,-2.38977
10.35000,-1.72520,-2.40073
10.40000,-1.73360,-2.40878
10.45000,-1.74200,-2.42100
10.50000,-1.75013,-2.42799
10.55000,-1.75866,-2.43875
10.60000,-1.76693,-2.44671
10.65000,-1.77506,-2.45722
10.70000,-1.78373,-2.46572
10.75000,-1.79200,-2.47677
10.80000,-1.80013,-2.48499
10.85000,-1.80853,-2.49440
10.90000,-1.81693,-2.50363
10.95000,-1.82493,-2.51251
11.00000,-1.83333,-2.52094
11.05000,-1.84186,-2.53125
11.10000,-1.85013,-2.54122
11.15000,-1.85840,-2.54986
11.20000,-1.86693,-2.55874
11.25000,-1.87520,-2.56805
11.30000,-1.88360,-2.57715
11.35000,-1.89200,-2.58558
11.40000,-1.90026,-2.59540
11.45000,-1.90866,-2.60373
11.50000,-1.91706,-2.61407
11.55000,-1.92520,-2.62172
11.60000,-1.93360,-2.63105
11.65000,-1.94186,-2.63901
11.70000,-1.95000,-2.64791
11.75000,-1.95853,-2.65644
11.80000,-1.96693,-2.66614
11.85000,-1.97506,-2.67447
11.90000,-1.98346,-2.68479
11.95000,-1.99200,-2.69148
12.00000,-2.00013,-2.70224
12.05000,-2.00840,-2.70869
12.10000,-2.01706,-2.71909
12.15000,-2.02520,-2.72720
12.20000,-2.03359,-2.73714
12.25000,-2.04200,-2.74507
12.30000,-2.05026,-2.75457
12.35000,-2.05853,-2.76152
12.40000,-2.06680,-2.77049
12.45000,-2.07506,-2.77924
12.50000,-2.08346,-2.78658
12.55000,-2.09186,-2.79684
12.60000,-2.09986,-2.80367
12.65000,-2.10839,-2.81315
12.70000,-2.11679,-2.82004
12.75000,-2.12506,-2.83022
12.80000,-2.13346,-2.83652
12.85000,-2.14213,-2.84674
12.90000,-2.15026,-2.85514
12.95000,-2.15853,-2.86307
13.00000,-2.16706,-2.87305
13.05000,-2.17533,-2.87999
13.10000,-2.18346,-2.88884
13.15000,-2.19173,-2.89546
13.20000,-2.20026,-2.90479
13.25000,-2.20839,-2.91148
13.30000,-2.21666,-2.92013
13.35000,-2.22506,-2.92994
13.40000,-2.23333,-2.93667
13.45000,-2.24159,-2.94438
13.50000,-2.25013,-2.95313
13.55000,-2.25853,-2.96060
13.60000,-2.26693,-2.97096
13.65000,-2.27519,-2.97700
13.70000,-2.28346,-2.98809
13.75000,-2.29199,-2.99411
13.80000,-2.30026,-3.00294
13.85000,-2.30839,-3.01061
13.90000,-2.31706,-3.01859
13.95000,-2.32533,-3.02674
14.00000,-2.33333,-3.03364
14.05000,-2.34173,-3.04334
14.10000,-2.35013,-3.04983
14.15000,-2.35826,-3.05846
14.20000,-2.36666,-3.06615
14.25000,-2.37533,-3.07438
14.30000,-2.38359,-3.08228
14.35000,-2.39186,-3.09093
14.40000,-2.40039,-3.09893
14.45000,-2.40866,-3.10724
14.50000,-2.41693,-3.11486
14.55000,-2.42519,-3.12147
14.60000,-2.43359,-3.12906
14.65000,-2.44199,-3.13820
14.70000,-2.45026,-3.14448
14.75000,-2.45839,-3.15295
14.80000,-2.46693,-3.16097
14.85000,-2.47533,-3.16907
14.90000,-2.48333,-3.17581
14.95000,-2.49186,-3.18464
15.00000,-2.50026,-3.19202
15.05000,-2.50826,-3.19931
15.10000,-2.51679,-3.20649
15.15000,-2.52546,-3.21547
15.20000,-2.53346,-3.22332
15.25000,-2.54173,-3.23060
15.30000,-2.55039,-3.23897
15.35000,-2.55866,-3.24481
15.40000,-2.56679,-3.25484
15.45000,-2.57519,-3.26065
15.50000,-2.58359,-3.26770
15.55000,-2.59173,-3.27751
15.60000,-2.59999,-3.28468
15.65000,-2.60839,-3.29037
15.70000,-2.61679,-3.29950
15.75000,-2.62506,-3.30670
15.80000,-2.63319,-3.31383
15.85000,-2.64173,-3.31968
15.90000,-2.65026,-3.33173
15.95000,-2.65839,-3.33457
16.00000,-2.66679,-3.34497
16.05000,-2.67533,-3.35211
16.10000,-2.68359,-3.35781
16.15000,-2.69173,-3.36607
16.20000,-2.70026,-3.37361
16.25000,-2.70866,-3.38170
16.30000,-2.71679,-3.38564
16.35000,-2.72506,-3.39886
16.40000,-2.73359,-3.40114
16.45000,-2.74186,-3.41027
16.50000,-2.74999,-3.41647
16.55000,-2.75839,-3.42469
16.60000,-2.76666,-3.42918
16.65000,-2.77493,-3.43927
16.70000,-2.78333,-3.44610
16.75000,-2.79186,-3.45219
16.80000,-2.80026,-3.46076
16.85000,-2.80853,-3.46754
16.90000,-2.81693,-3.47435
16.95000,-2.82546,-3.48123
17.00000,-2.83359,-3.49121
17.05000,-2.84186,-3.49458
17.10000,-2.85039,-3.50341
17.15000,-2.85866,-3.51038
17.20000,-2.86666,-3.51832
17.25000,-2.87506,-3.52109
17.30000,-2.88359,-3.53269
17.35000,-2.89159,-3.53802
17.40000,-2.89986,-3.54416
17.45000,-2.90853,-3.55132
17.50000,-2.91679,-3.55939
17.55000,-2.92506,-3.56495
17.60000,-2.93359,-3.57148
17.65000,-2.94186,-3.57922
17.70000,-2.95026,-3.58682
17.75000,-2.95866,-3.59215
17.80000,-2.96693,-3.59944
17.85000,-2.97533,-3.60805
17.90000,-2.98373,-3.61218
17.95000,-2.99173,-3.61998
18.00000,-3.00026,-3.62557
18.05000,-3.00839,-3.63396
18.10000,-3.01639,-3.63804
18.15000,-3.02506,-3.64787
18.20000,-3.03346,-3.65353
18.25000,-3.04173,-3.66124
18.30000,-3.05026,-3.66595
18.35000,-3.05879,-3.67551
18.40000,-3.06679,-3.67956
18.45000,-3.07519,-3.68661
18.50000,-3.08373,-3.69490
18.55000,-3.09186,-3.70104
18.60000,-3.10013,-3.70514
18.65000,-3.10866,-3.71391
18.70000,-3.11693,-3.71987
18.75000,-3.12519,-3.72482
18.80000,-3.13359,-3.73238
18.85000,-3.14186,-3.73977
18.90000,-3.15026,-3.74395
18.95000,-3.15853,-3.75292
19.00000,-3.16666,-3.75692
19.05000,-3.17519,-3.76502
19.10000,-3.18359,-3.77024
19.15000,-3.19173,-3.77670
19.20000,-3.20013,-3.78405
19.25000,-3.20879,-3.79000
19.30000,-3.21693,-3.79661
19.35000,-3.22519,-3.80309
19.40000,-3.23373,-3.80887
19.45000,-3.24199,-3.81612
19.50000,-3.25026,-3.82022
19.55000,-3.25853,-3.82825
19.60000,-3.26693,-3.83248
19.65000,-3.27506,-3.84180
19.70000,-3.28333,-3.84347
19.75000,-3.29173,-3.85339
19.80000,-3.29999,-3.85771
19.85000,-3.30826,-3.86354
19.90000,-3.31666,-3.87036
19.95000,-3.32519,-3.87726
20.00000,-3.33359,-3.88380
20.05000,-3.34186,-3.89034
20.10000,-3.35026,-3.89527
20.15000,-3.35879,-3.90264
20.20000,-3.36693,-3.90673
20.25000,-3.37519,-3.91426
20.30000,-3.38373,-3.91860
20.35000,-3.39186,-3.92726
20.40000,-3.39999,-3.93147
20.45000,-3.40839,-3.93504
20.50000,-3.41692,-3.94716
20.55000,-3.42493,-3.94543
20.60000,-3.43319,-3.95767
20.65000,-3.44186,-3.95861
20.70000,-3.45012,-3.97055
20.75000,-3.45839,-3.97124
20.80000,-3.46692,-3.98194
20.85000,-3.47532,-3.98327
20.90000,-3.48359,-3.99362
20.95000,-3.49186,-3.99601
21.00000,-3.50026,-4.00194
21.05000,-3.50866,-4.01054
21.10000,-3.51692,-4.01312
21.15000,-3.52506,-4.02213
21.20000,-3.53359,-4.02366
21.25000,-3.54186,-4.03430
21.30000,-3.54999,-4.03466
21.35000,-3.55852,-4.04416
21.40000,-3.56692,-4.04604
21.45000,-3.57492,-4.05706
21.50000,-3.58332,-4.05617
21.55000,-3.59212,-4.06949
21.60000,-3.60026,-4.06841
21.65000,-3.60839,-4.07996
21.70000,-3.61706,-4.07847
21.75000,-3.62532,-4.09095
21.80000,-3.63346,-4.09058
21.85000,-3.64186,-4.10140
21.90000,-3.65026,-4.10107
21.95000,-3.65852,-4.11172
22.00000,-3.66679,-4.11323
22.05000,-3.67492,-4.11918
22.10000,-3.68346,-4.12446
22.15000,-3.69172,-4.12866
22.20000,-3.69999,-4.13897
22.25000,-3.70852,-4.13763
22.30000,-3.71692,-4.14849
22.35000,-3.72506,-4.15114
22.40000,-3.73346,-4.15848
22.45000,-3.74199,-4.15982
22.50000,-3.75012,-4.17174
22.55000,-3.75839,-4.16657
22.60000,-3.76692,-4.18741
22.65000,-3.77532,-4.17317
22.70000,-3.78346,-4.19779
22.75000,-3.79172,-4.18532
22.80000,-3.80026,-4.20455
22.85000,-3.80839,-4.19739
22.90000,-3.81666,-4.21383
22.95000,-3.82506,-4.20893
23.00000,-3.83332,-4.22215
23.05000,-3.84159,-4.22096
23.10000,-3.84999,-4.23015
23.15000,-3.85852,-4.23130
23.20000,-3.86692,-4.23925
23.25000,-3.87519,-4.24298
23.30000,-3.88346,-4.24853
23.35000,-3.89186,-4.25269
23.40000,-3.90012,-4.25781
23.45000,-3.90826,-4.26186
23.50000,-3.91679,-4.26456
23.55000,-3.92519,-4.27445
23.60000,-3.93319,-4.27071
23.65000,-3.94172,-4.28609
23.70000,-3.95012,-4.28002
23.75000,-3.95839,-4.29631
23.80000,-3.96652,-4.28894
23.85000,-3.97519,-4.30331
23.90000,-3.98346,-4.29971
23.95000,-3.99172,-4.31160
24.00000,-4.00026,-4.30967
24.05000,-4.00866,-4.32102
24.10000,-4.01692,-4.32020
24.15000,-4.02532,-4.32925
24.20000,-4.03359,-4.33033
24.25000,-4.04199,-4.33657
24.30000,-4.05039,-4.33885
24.35000,-4.05839,-4.34611
24.40000,-4.06706,-4.34917
24.45000,-4.07519,-4.35193
24.50000,-4.08319,-4.36004
24.55000,-4.09172,-4.36014
24.60000,-4.10012,-4.36786
24.65000,-4.10812,-4.36760
24.70000,-4.11666,-4.37879
24.75000,-4.12546,-4.37577
24.80000,-4.13359,-4.38949
24.85000,-4.14186,-4.38361
24.90000,-4.15039,-4.39824
24.95000,-4.15866,-4.39370
25.00000,-4.16679,-4.40221
25.05000,-4.17532,-4.40364
25.10000,-4.18372,-4.41063
25.15000,-4.19186,-4.41234
25.20000,-4.20012,-4.41746
25.25000,-4.20839,-4.42131
25.30000,-4.21692,-4.42394
25.35000,-4.22519,-4.42996
25.40000,-4.23332,-4.43069
25.45000,-4.24186,-4.43609
25.50000,-4.25026,-4.44079
25.55000,-4.25839,-4.44343
25.60000,-4.26666,-4.44693
25.65000,-4.27532,-4.45234
25.70000,-4.28346,-4.45426
25.75000,-4.29159,-4.45915
25.80000,-4.30012,-4.46101
25.85000,-4.30866,-4.46783
25.90000,-4.31679,-4.47174
25.95000,-4.32506,-4.47259
26.00000,-4.33332,-4.47920
26.05000,-4.34159,-4.48060
26.10000,-4.34999,-4.48587
26.15000,-4.35839,-4.48692
26.20000,-4.36679,-4.49391
26.25000,-4.37519,-4.49565
26.30000,-4.38346,-4.50102
26.35000,-4.39186,-4.50322
26.40000,-4.40026,-4.50613
26.45000,-4.40866,-4.51315
26.50000,-4.41679,-4.51114
26.55000,-4.42532,-4.51893
26.60000,-4.43359,-4.52084
26.65000,-4.44186,-4.52422
26.70000,-4.45039,-4.52941
26.75000,-4.45866,-4.53051
26.80000,-4.46679,-4.53695
26.85000,-4.47519,-4.53516
26.90000,-4.48359,-4.54495
26.95000,-4.49159,-4.54133
27.00000,-4.49999,-4.55086
27.05000,-4.50852,-4.55220
27.10000,-4.51692,-4.55329
27.15000,-4.52519,-4.56031
27.20000,-4.53359,-4.56175
27.25000,-4.54199,-4.56545
27.30000,-4.55026,-4.56845
27.35000,-4.55866,-4.57190
27.40000,-4.56692,-4.57710
27.45000,-4.57546,-4.57621
27.50000,-4.58372,-4.58480
27.55000,-4.59172,-4.58166
27.60000,-4.60026,-4.58816
27.65000,-4.60839,-4.59058
27.70000,-4.61652,-4.59520
27.75000,-4.62519,-4.59359
27.80000,-4.63359,-4.60573
27.85000,-4.64172,-4.60163
27.90000,-4.65012,-4.60767
27.95000,-4.65879,-4.60986
28.00000,-4.66692,-4.61650
28.05000,-4.67519,-4.61577
28.10000,-4.68372,-4.62104
28.15000,-4.69199,-4.62632
28.20000,-4.70026,-4.62525
28.25000,-4.70866,-4.63264
28.30000,-4.71706,-4.63232
28.35000,-4.72532,-4.63820
28.40000,-4.73346,-4.63810
28.45000,-4.74172,-4.64524
28.50000,-4.75026,-4.64607
28.55000,-4.75852,-4.65097
28.60000,-4.76652,-4.65269
28.65000,-4.77506,-4.65775
28.70000,-4.78359,-4.65817
28.75000,-4.79172,-4.66534
28.80000,-4.80012,-4.66395
28.85000,-4.80879,-4.67388
28.90000,-4.81692,-4.66868
28.95000,-4.82506,-4.68213
29.00000,-4.83359,-4.67380
29.05000,-4.84199,-4.68735
29.10000,-4.84999,-4.68182
29.15000,-4.85825,-4.69316
29.20000,-4.86679,-4.68845
29.25000,-4.87506,-4.69979
29.30000,-4.88332,-4.69361
29.35000,-4.89172,-4.70822
29.40000,-4.89999,-4.69655
29.45000,-4.90825,-4.71518
29.50000,-4.91665,-4.70556
29.55000,-4.92519,-4.71945
29.60000,-4.93359,-4.71376
29.65000,-4.94185,-4.72532
29.70000,-4.95012,-4.71915
29.75000,-4.95865,-4.73104
29.80000,-4.96692,-4.72419
29.85000,-4.97505,-4.73765
29.90000,-4.98359,-4.72989
29.95000,-4.99185,-4.74266
30.00000,-4.99985,-4.73675
30.05000,-5.00839,-4.74614
30.10000,-5.01679,-4.74259
30.15000,-5.02492,-4.75096
30.20000,-5.03332,-4.74959
30.25000,-5.04199,-4.75595
30.30000,-5.05012,-4.75678
30.35000,-5.05839,-4.76148
30.40000,-5.06692,-4.76325
30.45000,-5.07532,-4.76569
30.50000,-5.08359,-4.76911
30.55000,-5.09199,-4.77118
30.60000,-5.10039,-4.77431
30.65000,-5.10879,-4.77707
30.70000,-5.11705,-4.78181
30.75000,-5.12519,-4.78145
30.80000,-5.13372,-4.78533
30.85000,-5.14199,-4.78707
30.90000,-5.14999,-4.78970
30.95000,-5.15852,-4.79139
31.00000,-5.16692,-4.79485
31.05000,-5.17492,-4.79781
31.10000,-5.18332,-4.79972
31.15000,-5.19199,-4.80247
31.20000,-5.20025,-4.80555
31.25000,-5.20852,-4.80775
31.30000,-5.21705,-4.81030
31.35000,-5.22532,-4.81378
31.40000,-5.23359,-4.81512
31.45000,-5.24199,-4.81920
31.50000,-5.25025,-4.81906
31.55000,-5.25839,-4.82267
31.60000,-5.26665,-4.82342
31.65000,-5.27492,-4.82754
31.70000,-5.28345,-4.82694
31.75000,-5.29172,-4.83225
31.80000,-5.29985,-4.83314
31.85000,-5.30825,-4.83473
31.90000,-5.31679,-4.83660
31.95000,-5.32492,-4.83958
32.00000,-5.33332,-4.84133
32.05000,-5.34199,-4.84287
32.10000,-5.35025,-4.84758
32.15000,-5.35852,-4.84866
32.20000,-5.36692,-4.85140
32.25000,-5.37532,-4.85342
32.30000,-5.38345,-4.85488
32.35000,-5.39185,-4.85714
32.40000,-5.40025,-4.86019
32.45000,-5.40852,-4.86215
32.50000,-5.41679,-4.86462
32.55000,-5.42519,-4.86692
32.60000,-5.43345,-4.86961
32.65000,-5.44172,-4.87069
32.70000,-5.44999,-4.87336
32.75000,-5.45839,-4.87565
32.80000,-5.46692,-4.87885
32.85000,-5.47519,-4.88182
32.90000,-5.48345,-4.88378
32.95000,-5.49199,-4.88637
33.00000,-5.50025,-4.88926
33.05000,-5.50852,-4.89053
33.10000,-5.51692,-4.89297
33.15000,-5.52532,-4.89624
33.20000,-5.53345,-4.89793
33.25000,-5.54185,-4.90067
33.30000,-5.55025,-4.90410
33.35000,-5.55839,-4.90485
33.40000,-5.56665,-4.90783
33.45000,-5.57519,-4.90955
33.50000,-5.58345,-4.91253
33.55000,-5.59172,-4.91545
33.60000,-5.60025,-4.91865
33.65000,-5.60865,-4.92025
33.70000,-5.61692,-4.92290
33.75000,-5.62532,-4.92570
33.80000,-5.63372,-4.92762
33.85000,-5.64199,-4.93038
33.90000,-5.65025,-4.93271
33.95000,-5.65839,-4.93462
34.00000,-5.66692,-4.93657
34.05000,-5.67519,-4.93985
34.10000,-5.68332,-4.94061
34.15000,-5.69185,-4.94330
34.20000,-5.70025,-4.94549
34.25000,-5.70839,-4.94875
34.30000,-5.71679,-4.94995
34.35000,-5.72532,-4.95364
34.40000,-5.73359,-4.95535
34.45000,-5.74185,-4.95686
34.50000,-5.75039,-4.95874
34.55000,-5.75865,-4.96159
34.60000,-5.76679,-4.96276
34.65000,-5.77532,-4.96578
34.70000,-5.78359,-4.96858
34.75000,-5.79185,-4.97127
34.80000,-5.80012,-4.97292
34.85000,-5.80839,-4.97434
34.90000,-5.81679,-4.97682
34.95000,-5.82505,-4.97932
35.00000,-5.83319,-4.98153
35.05000,-5.84172,-4.98337
35.10000,-5.85025,-4.98758
35.15000,-5.85839,-4.98964
35.20000,-5.86679,-4.99144
35.25000,-5.87532,-4.99441
35.30000,-5.88345,-4.99669
35.35000,-5.89172,-4.99865
35.40000,-5.90039,-5.00104
35.45000,-5.90865,-5.00549
35.50000,-5.91665,-5.00658
35.55000,-5.92505,-5.00816
35.60000,-5.93359,-5.01191
35.65000,-5.94172,-5.01324
35.70000,-5.94999,-5.01519
35.75000,-5.95852,-5.01880
35.80000,-5.96679,-5.02043
35.85000,-5.97505,-5.02322
35.90000,-5.98345,-5.02528
35.95000,-5.99185,-5.02699
