Time,Extension,Load
(sec),(mm),(N)
0.00000,-0.00027,-0.34311
0.05000,-0.00187,-0.34349
0.10000,-0.00707,-0.34877
0.15000,-0.01653,-0.36221
0.20000,-0.02680,-0.37861
0.25000,-0.03667,-0.39490
0.30000,-0.04653,-0.40854
0.35000,-0.05573,-0.42249
0.40000,-0.06467,-0.43483
0.45000,-0.07387,-0.44738
0.50000,-0.08253,-0.45937
0.55000,-0.09093,-0.47089
0.60000,-0.09973,-0.48254
0.65000,-0.10827,-0.49340
0.70000,-0.11653,-0.50511
0.75000,-0.12507,-0.51569
0.80000,-0.13347,-0.52583
0.85000,-0.14187,-0.53858
0.90000,-0.15013,-0.54710
0.95000,-0.15853,-0.55962
1.00000,-0.16693,-0.56906
1.05000,-0.17507,-0.57928
1.10000,-0.18333,-0.59091
1.15000,-0.19187,-0.59962
1.20000,-0.20027,-0.61205
1.25000,-0.20853,-0.62160
1.30000,-0.21680,-0.63244
1.35000,-0.22547,-0.64335
1.40000,-0.23373,-0.65424
1.45000,-0.24187,-0.66351
1.50000,-0.25040,-0.67471
1.55000,-0.25893,-0.68515
1.60000,-0.26693,-0.69500
1.65000,-0.27520,-0.70571
1.70000,-0.28373,-0.71594
1.75000,-0.29187,-0.72610
1.80000,-0.30013,-0.73709
1.85000,-0.30853,-0.74633
1.90000,-0.31680,-0.75761
1.95000,-0.32507,-0.76753
2.00000,-0.33347,-0.77767
2.05000,-0.34200,-0.78806
2.10000,-0.35027,-0.79905
2.15000,-0.35867,-0.80897
2.20000,-0.36693,-0.82074
2.25000,-0.37547,-0.82908
2.30000,-0.38373,-0.84194
2.35000,-0.39200,-0.85058
2.40000,-0.40053,-0.86164
2.45000,-0.40880,-0.87169
2.50000,-0.41680,-0.88253
2.55000,-0.42520,-0.89143
2.60000,-0.43373,-0.90340
2.65000,-0.44173,-0.91316
2.70000,-0.45000,-0.92345
2.75000,-0.45867,-0.93388
2.80000,-0.46693,-0.94467
2.85000,-0.47520,-0.95469
2.90000,-0.48373,-0.96544
2.95000,-0.49200,-0.97583
3.00000,-0.50040,-0.98593
3.05000,-0.50867,-0.99672
3.10000,-0.51693,-1.00755
3.15000,-0.52547,-1.01777
3.20000,-0.53373,-1.02798
3.25000,-0.54187,-1.03868
3.30000,-0.55040,-1.04898
3.35000,-0.55867,-1.05926
3.40000,-0.56680,-1.06972
3.45000,-0.57520,-1.08061
3.50000,-0.58360,-1.09015
3.55000,-0.59173,-1.10155
3.60000,-0.60013,-1.11191
3.65000,-0.60880,-1.12248
3.70000,-0.61707,-1.13354
3.75000,-0.62533,-1.14341
3.80000,-0.63373,-1.15461
3.85000,-0.64213,-1.16448
3.90000,-0.65027,-1.17476
3.95000,-0.65880,-1.18610
4.00000,-0.66707,-1.19587
4.05000,-0.67533,-1.20638
4.10000,-0.68360,-1.21717
4.15000,-0.69186,-1.22741
4.20000,-0.70026,-1.23777
4.25000,-0.70853,-1.24826
4.30000,-0.71666,-1.25858
4.35000,-0.72533,-1.26881
4.40000,-0.73373,-1.28020
4.45000,-0.74200,-1.29038
4.50000,-0.75026,-1.30087
4.55000,-0.75880,-1.31069
4.60000,-0.76706,-1.32186
4.65000,-0.77533,-1.33240
4.70000,-0.78386,-1.34216
4.75000,-0.79213,-1.35320
4.80000,-0.80013,-1.36326
4.85000,-0.80853,-1.37318
4.90000,-0.81706,-1.38404
4.95000,-0.82520,-1.39387
5.00000,-0.83346,-1.40539
5.05000,-0.84186,-1.41352
5.10000,-0.85013,-1.42637
5.15000,-0.85840,-1.43523
5.20000,-0.86680,-1.44591
5.25000,-0.87520,-1.45556
5.30000,-0.88373,-1.46869
5.35000,-0.89200,-1.47711
5.40000,-0.90040,-1.48786
5.45000,-0.90893,-1.49861
5.50000,-0.91720,-1.51017
5.55000,-0.92520,-1.51896
5.60000,-0.93373,-1.52992
5.65000,-0.94213,-1.54108
5.70000,-0.95013,-1.55038
5.75000,-0.95853,-1.56113
5.80000,-0.96693,-1.57173
5.85000,-0.97506,-1.58212
5.90000,-0.98333,-1.59214
5.95000,-0.99186,-1.60217
6.00000,-1.00013,-1.61490
6.05000,-1.00853,-1.62314
6.10000,-1.01706,-1.63592
6.15000,-1.02533,-1.64512
6.20000,-1.03373,-1.65723
6.25000,-1.04213,-1.66644
6.30000,-1.05040,-1.67791
6.35000,-1.05866,-1.68687
6.40000,-1.06693,-1.69882
6.45000,-1.07506,-1.70820
6.50000,-1.08360,-1.71969
6.55000,-1.09186,-1.72935
6.60000,-1.10000,-1.74138
6.65000,-1.10853,-1.75050
6.70000,-1.11693,-1.76184
6.75000,-1.12506,-1.77249
6.80000,-1.13346,-1.78296
6.85000,-1.14213,-1.79302
6.90000,-1.15040,-1.80493
6.95000,-1.15880,-1.81390
7.00000,-1.16733,-1.82679
7.05000,-1.17546,-1.83534
7.10000,-1.18373,-1.84693
7.15000,-1.19213,-1.85644
7.20000,-1.20040,-1.86839
7.25000,-1.20866,-1.87586
7.30000,-1.21706,-1.88998
7.35000,-1.22533,-1.89793
7.40000,-1.23373,-1.90993
7.45000,-1.24200,-1.91889
7.50000,-1.25013,-1.93030
7.55000,-1.25853,-1.94022
7.60000,-1.26706,-1.95121
7.65000,-1.27520,-1.96254
7.70000,-1.28360,-1.97181
7.75000,-1.29226,-1.98271
7.80000,-1.30040,-1.99321
7.85000,-1.30840,-2.00376
7.90000,-1.31693,-2.01296
7.95000,-1.32546,-2.02438
8.00000,-1.33346,-2.03499
8.05000,-1.34200,-2.04462
8.10000,-1.35040,-2.05595
8.15000,-1.35853,-2.06569
8.20000,-1.36666,-2.07600
8.25000,-1.37520,-2.08604
8.30000,-1.38346,-2.09677
8.35000,-1.39186,-2.10659
8.40000,-1.40026,-2.11730
8.45000,-1.40880,-2.12810
8.50000,-1.41706,-2.13839
8.55000,-1.42520,-2.14752
8.60000,-1.43346,-2.15895
8.65000,-1.44200,-2.16748
8.70000,-1.45040,-2.17942
8.75000,-1.45853,-2.18832
8.80000,-1.46706,-2.19943
8.85000,-1.47546,-2.20890
8.90000,-1.48346,-2.22018
8.95000,-1.49200,-2.22805
9.00000,-1.50040,-2.23960
9.05000,-1.50840,-2.24850
9.10000,-1.51680,-2.25923
9.15000,-1.52533,-2.26748
9.20000,-1.53360,-2.28156
9.25000,-1.54186,-2.28673
9.30000,-1.55040,-2.29915
9.35000,-1.55866,-2.31016
9.40000,-1.56706,-2.31882
9.45000,-1.57546,-2.32861
9.50000,-1.58373,-2.33879
9.55000,-1.59213,-2.34946
9.60000,-1.60040,-2.35728
9.65000,-1.60866,-2.37027
9.70000,-1.61706,-2.37575
9.75000,-1.62546,-2.38934
9.80000,-1.63346,-2.39626
9.85000,-1.64186,-2.40830
9.90000,-1.65026,-2.41342
9.95000,-1.65840,-2.42847
10.00000,-1.66680,-2.43315
10.05000,-1.67533,-2.44792
10.10000,-1.68346,-2.45193
10.15000,-1.69186,-2.46641
10.20000,-1.70040,-2.47174
10.25000,-1.70866,-2.48532
10.30000,-1.71693,-2.48975
10.35000,-1.72560,-2.50617
10.40000,-1.73386,-2.50796
10.45000,-1.74200,-2.52373
10.50000,-1.75040,-2.52776
10.55000,-1.75880,-2.54188
10.60000,-1.76706,-2.54608
10.65000,-1.77533,-2.56022
10.70000,-1.78346,-2.56419
10.75000,-1.79186,-2.57587
10.80000,-1.80040,-2.58239
10.85000,-1.80853,-2.59367
10.90000,-1.81693,-2.59608
10.95000,-1.82560,-2.60771
11.00000,-1.83386,-2.58112
11.05000,-1.84200,-2.57649
11.10000,-1.85040,-2.56514
11.15000,-1.85880,-2.58217
11.20000,-1.86693,-2.57639
11.25000,-1.87520,-2.46692
11.30000,-1.88360,-2.43197
11.35000,-1.89173,-2.44559
11.40000,-1.90013,-2.45387
11.45000,-1.90853,-2.47319
11.50000,-1.91680,-2.48553
11.55000,-1.92506,-2.50564
11.60000,-1.93346,-2.51572
11.65000,-1.94186,-2.53324
11.70000,-1.95040,-2.54099
11.75000,-1.95866,-2.55893
11.80000,-1.96693,-2.56636
11.85000,-1.97533,-2.58369
11.90000,-1.98360,-2.59049
11.95000,-1.99186,-2.60711
12.00000,-2.00040,-2.61160
12.05000,-2.00880,-2.62811
12.10000,-2.01680,-2.63303
12.15000,-2.02506,-2.64725
12.20000,-2.03359,-2.65118
12.25000,-2.04173,-2.66650
12.30000,-2.05000,-2.67235
12.35000,-2.05879,-2.68930
12.40000,-2.06706,-2.69482
12.45000,-2.07533,-2.70559
12.50000,-2.08373,-2.70257
12.55000,-2.09213,-2.71648
12.60000,-2.10039,-2.72220
12.65000,-2.10879,-2.73916
12.70000,-2.11706,-2.74421
12.75000,-2.12546,-2.76069
12.80000,-2.13386,-2.76615
12.85000,-2.14186,-2.78187
12.90000,-2.15039,-2.78578
12.95000,-2.15879,-2.80190
13.00000,-2.16679,-2.80686
13.05000,-2.17519,-2.82111
13.10000,-2.18373,-2.82841
13.15000,-2.19173,-2.83849
13.20000,-2.20013,-2.84757
13.25000,-2.20879,-2.85853
13.30000,-2.21693,-2.86846
13.35000,-2.22519,-2.87558
13.40000,-2.23373,-2.88702
13.45000,-2.24213,-2.89503
13.50000,-2.25013,-2.90317
13.55000,-2.25853,-2.91069
13.60000,-2.26679,-2.92156
13.65000,-2.27506,-2.92752
13.70000,-2.28333,-2.93748
13.75000,-2.29173,-2.94505
13.80000,-2.30026,-2.95563
13.85000,-2.30853,-2.96103
13.90000,-2.31666,-2.97190
13.95000,-2.32519,-2.97738
14.00000,-2.33359,-2.98864
14.05000,-2.34186,-2.99468
14.10000,-2.35026,-3.00268
14.15000,-2.35879,-3.00921
14.20000,-2.36706,-3.01843
14.25000,-2.37533,-3.02449
14.30000,-2.38386,-3.03298
14.35000,-2.39226,-3.03936
14.40000,-2.40039,-3.04819
14.45000,-2.40866,-3.05360
14.50000,-2.41706,-3.06293
14.55000,-2.42533,-3.07007
14.60000,-2.43359,-3.07812
14.65000,-2.44186,-3.08494
14.70000,-2.45013,-3.09302
14.75000,-2.45839,-3.09881
14.80000,-2.46693,-3.10728
14.85000,-2.47533,-3.11327
14.90000,-2.48373,-3.12221
14.95000,-2.49199,-3.12839
15.00000,-2.50039,-3.13442
15.05000,-2.50893,-3.13944
15.10000,-2.51706,-3.14895
15.15000,-2.52519,-3.15044
15.20000,-2.53373,-3.15960
15.25000,-2.54213,-3.16341
15.30000,-2.54999,-3.17235
15.35000,-2.55826,-3.17715
15.40000,-2.56693,-3.18500
15.45000,-2.57506,-3.18945
15.50000,-2.58333,-3.19871
15.55000,-2.59199,-3.20396
15.60000,-2.60039,-3.21365
15.65000,-2.60866,-3.21838
15.70000,-2.61719,-3.22829
15.75000,-2.62546,-3.23363
15.80000,-2.63373,-3.24307
15.85000,-2.64213,-3.24830
15.90000,-2.65039,-3.25894
15.95000,-2.65866,-3.26560
16.00000,-2.66706,-3.27473
16.05000,-2.67519,-3.28200
16.10000,-2.68359,-3.28877
16.15000,-2.69186,-3.29802
16.20000,-2.69986,-3.30476
16.25000,-2.70839,-3.31264
16.30000,-2.71706,-3.32265
16.35000,-2.72506,-3.33051
16.40000,-2.73359,-3.33703
16.45000,-2.74226,-3.34641
16.50000,-2.75039,-3.35490
16.55000,-2.75866,-3.36086
16.60000,-2.76719,-3.36923
16.65000,-2.77546,-3.37858
16.70000,-2.78359,-3.38405
16.75000,-2.79213,-3.39273
16.80000,-2.80053,-3.40074
16.85000,-2.80866,-3.40765
16.90000,-2.81693,-3.41578
16.95000,-2.82519,-3.42360
17.00000,-2.83373,-3.43026
17.05000,-2.84199,-3.43598
17.10000,-2.85026,-3.44756
17.15000,-2.85866,-3.45070
17.20000,-2.86693,-3.46035
17.25000,-2.87519,-3.46626
17.30000,-2.88359,-3.47605
17.35000,-2.89213,-3.48032
17.40000,-2.90039,-3.49194
17.45000,-2.90866,-3.49573
17.50000,-2.91719,-3.50564
17.55000,-2.92559,-3.51033
17.60000,-2.93359,-3.52045
17.65000,-2.94186,-3.52380
17.70000,-2.95039,-3.53343
17.75000,-2.95853,-3.53761
17.80000,-2.96666,-3.54735
17.85000,-2.97519,-3.55164
17.90000,-2.98346,-3.56097
17.95000,-2.99186,-3.56635
18.00000,-3.00026,-3.57455
18.05000,-3.00866,-3.57963
18.10000,-3.01706,-3.58878
18.15000,-3.02533,-3.59400
18.20000,-3.03359,-3.60180
18.25000,-3.04226,-3.60666
18.30000,-3.05039,-3.61514
18.35000,-3.05853,-3.61885
18.40000,-3.06706,-3.62559
18.45000,-3.07533,-3.63111
18.50000,-3.08346,-3.63741
18.55000,-3.09186,-3.64219
18.60000,-3.10039,-3.64861
18.65000,-3.10853,-3.65501
18.70000,-3.11666,-3.66040
18.75000,-3.12533,-3.66685
18.80000,-3.13359,-3.67340
18.85000,-3.14186,-3.67856
18.90000,-3.15039,-3.68432
18.95000,-3.15866,-3.69013
19.00000,-3.16706,-3.69707
19.05000,-3.17546,-3.70329
19.10000,-3.18373,-3.70904
19.15000,-3.19199,-3.71604
19.20000,-3.20039,-3.72041
19.25000,-3.20853,-3.72763
19.30000,-3.21706,-3.73245
19.35000,-3.22533,-3.73944
19.40000,-3.23346,-3.74437
19.45000,-3.24186,-3.75130
19.50000,-3.25026,-3.75588
19.55000,-3.25839,-3.76220
19.60000,-3.26679,-3.76689
19.65000,-3.27546,-3.77384
19.70000,-3.28373,-3.77950
19.75000,-3.29186,-3.78576
19.80000,-3.30039,-3.79025
19.85000,-3.30879,-3.79750
19.90000,-3.31706,-3.80294
19.95000,-3.32546,-3.80925
20.00000,-3.33386,-3.81370
20.05000,-3.34199,-3.82086
20.10000,-3.35013,-3.82624
20.15000,-3.35839,-3.83047
20.20000,-3.36693,-3.83513
20.25000,-3.37519,-3.84231
20.30000,-3.38346,-3.84759
20.35000,-3.39186,-3.85289
20.40000,-3.40053,-3.85942
20.45000,-3.40866,-3.86368
20.50000,-3.41692,-3.86875
20.55000,-3.42546,-3.87374
20.60000,-3.43372,-3.87981
20.65000,-3.44186,-3.88419
20.70000,-3.45039,-3.89083
20.75000,-3.45892,-3.89663
20.80000,-3.46692,-3.90137
20.85000,-3.47532,-3.90532
20.90000,-3.48372,-3.91080
20.95000,-3.49186,-3.91519
21.00000,-3.50012,-3.92006
21.05000,-3.50852,-3.92530
21.10000,-3.51679,-3.92959
21.15000,-3.52506,-3.93587
21.20000,-3.53346,-3.94213
21.25000,-3.54186,-3.94789
21.30000,-3.55039,-3.95408
21.35000,-3.55866,-3.96169
21.40000,-3.56692,-3.96526
21.45000,-3.57546,-3.97208
21.50000,-3.58372,-3.97806
21.55000,-3.59186,-3.98435
21.60000,-3.60026,-3.98869
21.65000,-3.60866,-3.99553
21.70000,-3.61666,-4.00033
21.75000,-3.62506,-4.00654
21.80000,-3.63372,-4.01260
21.85000,-3.64172,-4.01852
21.90000,-3.64999,-4.02304
21.95000,-3.65866,-4.02932
22.00000,-3.66692,-4.03561
22.05000,-3.67519,-4.04051
22.10000,-3.68359,-4.04631
22.15000,-3.69199,-4.05253
22.20000,-3.70039,-4.05681
22.25000,-3.70879,-4.06294
22.30000,-3.71706,-4.06833
22.35000,-3.72546,-4.07420
22.40000,-3.73372,-4.07856
22.45000,-3.74186,-4.08212
22.50000,-3.75039,-4.09025
22.55000,-3.75879,-4.09308
22.60000,-3.76679,-4.09960
22.65000,-3.77532,-4.10436
22.70000,-3.78372,-4.11042
22.75000,-3.79172,-4.11370
22.80000,-3.80012,-4.11963
22.85000,-3.80879,-4.12478
22.90000,-3.81706,-4.12948
22.95000,-3.82519,-4.13429
23.00000,-3.83372,-4.13995
23.05000,-3.84212,-4.14509
23.10000,-3.85026,-4.15012
23.15000,-3.85879,-4.15438
23.20000,-3.86719,-4.15897
23.25000,-3.87532,-4.16375
23.30000,-3.88359,-4.16931
23.35000,-3.89186,-4.17188
23.40000,-3.90039,-4.17713
23.45000,-3.90879,-4.18215
23.50000,-3.91679,-4.18672
23.55000,-3.92519,-4.18990
23.60000,-3.93372,-4.19562
23.65000,-3.94199,-4.20060
23.70000,-3.95026,-4.20355
23.75000,-3.95866,-4.20865
23.80000,-3.96706,-4.21398
23.85000,-3.97519,-4.21671
23.90000,-3.98372,-4.22168
23.95000,-3.99226,-4.22676
24.00000,-4.00026,-4.23128
24.05000,-4.00852,-4.23463
24.10000,-4.01692,-4.23944
24.15000,-4.02506,-4.24233
24.20000,-4.03332,-4.24759
24.25000,-4.04186,-4.25276
24.30000,-4.05026,-4.25652
24.35000,-4.05866,-4.26034
24.40000,-4.06692,-4.26643
24.45000,-4.07532,-4.26994
24.50000,-4.08372,-4.27285
24.55000,-4.09199,-4.27794
24.60000,-4.10026,-4.28256
24.65000,-4.10879,-4.28531
24.70000,-4.11706,-4.29192
24.75000,-4.12519,-4.29524
24.80000,-4.13359,-4.29946
24.85000,-4.14212,-4.30306
24.90000,-4.15012,-4.31013
24.95000,-4.15852,-4.31080
25.00000,-4.16692,-4.31858
25.05000,-4.17506,-4.32041
25.10000,-4.18332,-4.32729
25.15000,-4.19199,-4.32815
25.20000,-4.20026,-4.33795
25.25000,-4.20852,-4.33600
25.30000,-4.21692,-4.34557
25.35000,-4.22532,-4.34804
25.40000,-4.23372,-4.35360
25.45000,-4.24199,-4.35423
25.50000,-4.25039,-4.36141
25.55000,-4.25879,-4.36853
25.60000,-4.26706,-4.36667
25.65000,-4.27519,-4.37731
25.70000,-4.28359,-4.37749
25.75000,-4.29199,-4.38484
25.80000,-4.30012,-4.38652
25.85000,-4.30852,-4.39257
25.90000,-4.31719,-4.39538
25.95000,-4.32519,-4.40056
26.00000,-4.33346,-4.40528
26.05000,-4.34212,-4.40714
26.10000,-4.35039,-4.41440
26.15000,-4.35866,-4.41671
26.20000,-4.36719,-4.42080
26.25000,-4.37546,-4.42645
26.30000,-4.38372,-4.42735
26.35000,-4.39199,-4.43609
26.40000,-4.40039,-4.43442
26.45000,-4.40879,-4.44433
26.50000,-4.41706,-4.44423
26.55000,-4.42532,-4.45268
26.60000,-4.43372,-4.45221
26.65000,-4.44212,-4.46074
26.70000,-4.45012,-4.45984
26.75000,-4.45852,-4.46854
26.80000,-4.46692,-4.46744
26.85000,-4.47519,-4.47685
26.90000,-4.48359,-4.47492
26.95000,-4.49212,-4.48540
27.00000,-4.50039,-4.48243
27.05000,-4.50852,-4.49253
27.10000,-4.51692,-4.49286
27.15000,-4.52546,-4.49777
27.20000,-4.53359,-4.50109
27.25000,-4.54186,-4.50551
27.30000,-4.55026,-4.50996
27.35000,-4.55852,-4.50950
27.40000,-4.56679,-4.51908
27.45000,-4.57519,-4.51782
27.50000,-4.58346,-4.52487
27.55000,-4.59172,-4.52460
27.60000,-4.60012,-4.53319
27.65000,-4.60866,-4.53382
27.70000,-4.61706,-4.53837
27.75000,-4.62532,-4.54343
27.80000,-4.63346,-4.54642
27.85000,-4.64212,-4.54748
27.90000,-4.65039,-4.55666
27.95000,-4.65852,-4.55275
28.00000,-4.66706,-4.56375
28.05000,-4.67546,-4.56238
28.10000,-4.68332,-4.56662
28.15000,-4.69172,-4.57128
28.20000,-4.70026,-4.57087
28.25000,-4.70839,-4.58071
28.30000,-4.71666,-4.57615
28.35000,-4.72532,-4.58660
28.40000,-4.73359,-4.58587
28.45000,-4.74185,-4.59338
28.50000,-4.75039,-4.59335
28.55000,-4.75879,-4.59976
28.60000,-4.76706,-4.60173
28.65000,-4.77546,-4.60632
28.70000,-4.78372,-4.60885
28.75000,-4.79212,-4.60962
28.80000,-4.80052,-4.62519
28.85000,-4.80852,-4.60730
28.90000,-4.81706,-4.62870
28.95000,-4.82532,-4.62136
29.00000,-4.83332,-4.63268
29.05000,-4.84185,-4.62313
29.10000,-4.85039,-4.64156
29.15000,-4.85839,-4.63006
29.20000,-4.86679,-4.64471
29.25000,-4.87559,-4.63850
29.30000,-4.88372,-4.65199
29.35000,-4.89199,-4.64384
29.40000,-4.90052,-4.65423
29.45000,-4.90892,-4.65529
29.50000,-4.91705,-4.66068
29.55000,-4.92545,-4.65819
29.60000,-4.93372,-4.66513
29.65000,-4.94199,-4.66847
29.70000,-4.95025,-4.66520
29.75000,-4.95852,-4.67594
29.80000,-4.96692,-4.67101
29.85000,-4.97519,-4.68058
29.90000,-4.98332,-4.67442
29.95000,-4.99172,-4.68826
30.00000,-5.00025,-4.67913
30.05000,-5.00852,-4.69301
30.10000,-5.01679,-4.68997
30.15000,-5.02532,-4.69284
30.20000,-5.03372,-4.69584
30.25000,-5.04185,-4.70413
30.30000,-5.05025,-4.69752
30.35000,-5.05879,-4.70643
30.40000,-5.06692,-4.70782
30.45000,-5.07519,-4.71167
30.50000,-5.08372,-4.70915
30.55000,-5.09199,-4.72048
30.60000,-5.10025,-4.71284
30.65000,-5.10865,-4.72086
30.70000,-5.11679,-4.72817
30.75000,-5.12505,-4.71941
30.80000,-5.13345,-4.72719
30.85000,-5.14185,-4.73557
30.90000,-5.15039,-4.73069
30.95000,-5.15865,-4.73691
31.00000,-5.16692,-4.73858
31.05000,-5.17545,-4.74552
31.10000,-5.18372,-4.73832
31.15000,-5.19185,-4.75345
31.20000,-5.20039,-4.74400
31.25000,-5.20879,-4.75765
31.30000,-5.21679,-4.74676
31.35000,-5.22519,-4.76533
31.40000,-5.23372,-4.75467
31.45000,-5.24172,-4.76394
31.50000,-5.24999,-4.76638
31.55000,-5.25865,-4.76490
31.60000,-5.26692,-4.76966
31.65000,-5.27519,-4.77383
31.70000,-5.28372,-4.77563
31.75000,-5.29212,-4.77437
31.80000,-5.30039,-4.78431
31.85000,-5.30879,-4.77604
31.90000,-5.31705,-4.79334
31.95000,-5.32559,-4.77953
32.00000,-5.33372,-4.79711
32.05000,-5.34185,-4.78681
32.10000,-5.35025,-4.80028
32.15000,-5.35879,-4.78907
32.20000,-5.36679,-4.80753
32.25000,-5.37519,-4.79468
32.30000,-5.38372,-4.80920
32.35000,-5.39185,-4.80320
32.40000,-5.40025,-4.81053
32.45000,-5.40879,-4.80588
32.50000,-5.41705,-4.81769
32.55000,-5.42532,-4.81314
32.60000,-5.43385,-4.82212
32.65000,-5.44212,-4.81714
32.70000,-5.45039,-4.82669
32.75000,-5.45879,-4.82237
32.80000,-5.46705,-4.82960
32.85000,-5.47532,-4.82511
32.90000,-5.48359,-4.83523
32.95000,-5.49185,-4.82900
33.00000,-5.50025,-4.83801
33.05000,-5.50852,-4.83564
33.10000,-5.51665,-4.83998
33.15000,-5.52519,-4.84120
33.20000,-5.53372,-4.84280
33.25000,-5.54199,-4.85012
33.30000,-5.55025,-4.84605
33.35000,-5.55892,-4.85305
33.40000,-5.56705,-4.85277
33.45000,-5.57519,-4.85823
33.50000,-5.58372,-4.85480
33.55000,-5.59225,-4.86271
33.60000,-5.60025,-4.86171
33.65000,-5.60852,-4.86849
33.70000,-5.61705,-4.86301
33.75000,-5.62519,-4.87247
33.80000,-5.63345,-4.86784
33.85000,-5.64199,-4.87912
33.90000,-5.65012,-4.87041
33.95000,-5.65852,-4.88191
34.00000,-5.66679,-4.87752
34.05000,-5.67532,-4.88391
34.10000,-5.68372,-4.88375
34.15000,-5.69199,-4.88873
34.20000,-5.70025,-4.88833
34.25000,-5.70879,-4.89355
34.30000,-5.71705,-4.89300
34.35000,-5.72519,-4.89866
34.40000,-5.73372,-4.89873
34.45000,-5.74212,-4.90253
34.50000,-5.75012,-4.90525
34.55000,-5.75852,-4.90730
34.60000,-5.76705,-4.90943
34.65000,-5.77519,-4.91617
34.70000,-5.78332,-4.90944
34.75000,-5.79199,-4.92408
34.80000,-5.79999,-4.91774
34.85000,-5.80839,-4.92302
34.90000,-5.81692,-4.92842
34.95000,-5.82532,-4.92878
35.00000,-5.83372,-4.93218
35.05000,-5.84212,-4.93496
35.10000,-5.85039,-4.93894
35.15000,-5.85879,-4.93695
35.20000,-5.86705,-4.94485
35.25000,-5.87519,-4.94195
35.30000,-5.88359,-4.94867
35.35000,-5.89199,-4.94958
35.40000,-5.90012,-4.95150
35.45000,-5.90852,-4.95470
35.50000,-5.91705,-4.95870
35.55000,-5.92505,-4.95821
35.60000,-5.93359,-4.96500
35.65000,-5.94212,-4.96384
35.70000,-5.95025,-4.96977
35.75000,-5.95839,-4.97037
35.80000,-5.96705,-4.97304
35.85000,-5.97545,-4.97558
35.90000,-5.98359,-4.98123
35.95000,-5.99212,-4.98057
