Time,Extension,Load
(sec),(mm),(N)
0.00000,0.35520,0.02819
0.05000,0.35387,0.02519
0.10000,0.34613,0.02995
0.15000,0.33600,0.02188
0.20000,0.32613,0.02823
0.25000,0.31627,0.02464
0.30000,0.30733,0.02879
0.35000,0.29853,0.02417
0.40000,0.28973,0.02880
0.45000,0.28120,0.02152
0.50000,0.27267,0.03113
0.55000,0.26400,0.02216
0.60000,0.25560,0.03008
0.65000,0.24693,0.02278
0.70000,0.23853,0.02661
0.75000,0.23027,0.02345
0.80000,0.22173,0.02535
0.85000,0.21347,0.02281
0.90000,0.20533,0.02278
0.95000,0.19680,0.02050
1.00000,0.18840,0.02055
1.05000,0.18027,0.01912
1.10000,0.17187,0.01778
1.15000,0.16333,0.01552
1.20000,0.15533,0.01502
1.25000,0.14707,0.01628
1.30000,0.13840,0.01272
1.35000,0.13013,0.01144
1.40000,0.12187,0.00805
1.45000,0.11333,0.00695
1.50000,0.10507,0.00605
1.55000,0.09680,0.00503
1.60000,0.08840,0.00299
1.65000,0.08013,0.00149
1.70000,0.07160,-0.00614
1.75000,0.06333,-0.00229
1.80000,0.05533,-0.00949
1.85000,0.04667,-0.00651
1.90000,0.03840,-0.01546
1.95000,0.03040,-0.01333
2.00000,0.02187,-0.02159
2.05000,0.01333,-0.01884
2.10000,0.00520,-0.03016
2.15000,-0.00307,-0.02430
2.20000,-0.01173,-0.03657
2.25000,-0.01987,-0.02667
2.30000,-0.02813,-0.03719
2.35000,-0.03667,-0.04116
2.40000,-0.04493,-0.04366
2.45000,-0.05333,-0.04815
2.50000,-0.06173,-0.04952
2.55000,-0.07000,-0.05177
2.60000,-0.07827,-0.05458
2.65000,-0.08653,-0.05790
2.70000,-0.09480,-0.06491
2.75000,-0.10320,-0.06562
2.80000,-0.11160,-0.07041
2.85000,-0.11973,-0.07207
2.90000,-0.12827,-0.07330
2.95000,-0.13667,-0.08049
3.00000,-0.14493,-0.08054
3.05000,-0.15333,-0.08676
3.10000,-0.16187,-0.09299
3.15000,-0.17013,-0.09164
3.20000,-0.17827,-0.09543
3.25000,-0.18667,-0.09783
3.30000,-0.19507,-0.10354
3.35000,-0.20320,-0.10431
3.40000,-0.21147,-0.11287
3.45000,-0.22000,-0.11262
3.50000,-0.22813,-0.11516
3.55000,-0.23627,-0.11911
3.60000,-0.24480,-0.12363
3.65000,-0.25320,-0.12555
3.70000,-0.26147,-0.13390
3.75000,-0.26987,-0.13484
3.80000,-0.27827,-0.14084
3.85000,-0.28667,-0.14124
3.90000,-0.29493,-0.15279
3.95000,-0.30320,-0.14926
4.00000,-0.31173,-0.15920
4.05000,-0.32000,-0.16030
4.10000,-0.32827,-0.16990
4.15000,-0.33667,-0.17136
4.20000,-0.34493,-0.17465
4.25000,-0.35307,-0.17974
4.30000,-0.36147,-0.18765
4.35000,-0.37000,-0.19128
4.40000,-0.37800,-0.20182
4.45000,-0.38627,-0.20262
4.50000,-0.39493,-0.21151
4.55000,-0.40320,-0.21724
4.60000,-0.41147,-0.22374
4.65000,-0.42000,-0.23204
4.70000,-0.42840,-0.23749
4.75000,-0.43667,-0.23916
4.80000,-0.44507,-0.25239
4.85000,-0.45333,-0.25500
4.90000,-0.46173,-0.26095
4.95000,-0.47000,-0.26596
5.00000,-0.47813,-0.27579
5.05000,-0.48667,-0.27995
5.10000,-0.49507,-0.28465
5.15000,-0.50307,-0.29790
5.20000,-0.51160,-0.29697
5.25000,-0.52000,-0.31146
5.30000,-0.52813,-0.31237
5.35000,-0.53653,-0.32524
5.40000,-0.54520,-0.33084
5.45000,-0.55333,-0.33807
5.50000,-0.56160,-0.34729
5.55000,-0.57000,-0.35655
5.60000,-0.57827,-0.36461
5.65000,-0.58640,-0.37495
5.70000,-0.59493,-0.38261
5.75000,-0.60333,-0.39440
5.80000,-0.61160,-0.40329
5.85000,-0.61987,-0.41336
5.90000,-0.62813,-0.42287
5.95000,-0.63653,-0.43782
6.00000,-0.64480,-0.44018
6.05000,-0.65307,-0.45747
6.10000,-0.66147,-0.46288
6.15000,-0.67000,-0.48073
6.20000,-0.67827,-0.48322
6.25000,-0.68653,-0.50133
6.30000,-0.69506,-0.50862
6.35000,-0.70333,-0.52494
6.40000,-0.71160,-0.52878
6.45000,-0.72013,-0.54475
6.50000,-0.72840,-0.55633
6.55000,-0.73640,-0.56609
6.60000,-0.74480,-0.57931
6.65000,-0.75320,-0.59117
6.70000,-0.76133,-0.60288
6.75000,-0.76973,-0.61428
6.80000,-0.77826,-0.62648
6.85000,-0.78653,-0.64162
6.90000,-0.79480,-0.65262
6.95000,-0.80320,-0.66539
7.00000,-0.81160,-0.67885
7.05000,-0.82000,-0.69177
7.10000,-0.82826,-0.70508
7.15000,-0.83653,-0.71928
7.20000,-0.84506,-0.72891
7.25000,-0.85333,-0.74868
7.30000,-0.86146,-0.75547
7.35000,-0.87013,-0.77479
7.40000,-0.87840,-0.78226
7.45000,-0.88640,-0.80212
7.50000,-0.89480,-0.80927
7.55000,-0.90320,-0.82767
7.60000,-0.91133,-0.83671
7.65000,-0.91960,-0.85379
7.70000,-0.92826,-0.86396
7.75000,-0.93653,-0.88077
7.80000,-0.94493,-0.89389
7.85000,-0.95346,-0.90431
7.90000,-0.96160,-0.92265
7.95000,-0.96986,-0.93009
8.00000,-0.97840,-0.95139
8.05000,-0.98666,-0.95504
8.10000,-0.99506,-0.97894
8.15000,-1.00346,-0.98250
8.20000,-1.01146,-1.00622
8.25000,-1.02000,-1.00792
8.30000,-1.02840,-1.03382
8.35000,-1.03640,-1.03473
8.40000,-1.04493,-1.06231
8.45000,-1.05333,-1.06375
8.50000,-1.06133,-1.08693
8.55000,-1.06986,-1.09216
8.60000,-1.07840,-1.11632
8.65000,-1.08653,-1.12051
8.70000,-1.09480,-1.14083
8.75000,-1.10346,-1.14953
8.80000,-1.11173,-1.17040
8.85000,-1.11986,-1.17722
8.90000,-1.12840,-1.19648
8.95000,-1.13680,-1.20383
9.00000,-1.14493,-1.22697
9.05000,-1.15333,-1.23341
9.10000,-1.16160,-1.25072
9.15000,-1.17000,-1.26236
9.20000,-1.17826,-1.28088
9.25000,-1.18640,-1.29120
9.30000,-1.19493,-1.30699
9.35000,-1.20333,-1.31894
9.40000,-1.21160,-1.33753
9.45000,-1.22000,-1.34701
9.50000,-1.22840,-1.36608
9.55000,-1.23666,-1.37654
9.60000,-1.24480,-1.39338
9.65000,-1.25333,-1.40870
9.70000,-1.26173,-1.42437
9.75000,-1.26986,-1.43761
9.80000,-1.27813,-1.45128
9.85000,-1.28680,-1.46658
9.90000,-1.29493,-1.48040
9.95000,-1.30293,-1.49364
10.00000,-1.31133,-1.50877
10.05000,-1.31973,-1.52061
10.10000,-1.32813,-1.53926
10.15000,-1.33653,-1.54767
10.20000,-1.34493,-1.56481
10.25000,-1.35320,-1.57689
10.30000,-1.36160,-1.59673
10.35000,-1.36986,-1.60977
10.40000,-1.37840,-1.62436
10.45000,-1.38666,-1.64093
10.50000,-1.39480,-1.65526
10.55000,-1.40333,-1.66981
10.60000,-1.41160,-1.68665
10.65000,-1.41960,-1.69515
10.70000,-1.42813,-1.71361
10.75000,-1.43680,-1.72251
10.80000,-1.44480,-1.73724
10.85000,-1.45306,-1.74910
10.90000,-1.46160,-1.75642
10.95000,-1.46986,-1.76549
11.00000,-1.47813,-1.77013
11.05000,-1.48666,-1.77705
11.10000,-1.49493,-1.77809
11.15000,-1.50320,-1.78554
11.20000,-1.51173,-1.79087
11.25000,-1.52000,-1.80147
11.30000,-1.52840,-1.80827
11.35000,-1.53666,-1.81905
11.40000,-1.54480,-1.82070
11.45000,-1.55333,-1.84267
11.50000,-1.56160,-1.85647
11.55000,-1.56973,-1.87257
11.60000,-1.57813,-1.88372
11.65000,-1.58666,-1.89977
11.70000,-1.59466,-1.91271
11.75000,-1.60306,-1.92568
11.80000,-1.61173,-1.94752
11.85000,-1.61986,-1.96092
11.90000,-1.62813,-1.97885
11.95000,-1.63680,-1.99416
12.00000,-1.64493,-2.00865
12.05000,-1.65320,-2.02514
12.10000,-1.66173,-2.03966
12.15000,-1.67000,-2.05692
12.20000,-1.67826,-2.06440
12.25000,-1.68653,-2.07307
12.30000,-1.69480,-2.07357
12.35000,-1.70333,-2.07959
12.40000,-1.71160,-2.07814
12.45000,-1.71973,-2.08106
12.50000,-1.72826,-2.08347
12.55000,-1.73666,-2.09111
12.60000,-1.74480,-2.09583
12.65000,-1.75320,-2.10092
12.70000,-1.76173,-2.10094
12.75000,-1.77000,-2.10741
12.80000,-1.77826,-2.12387
12.85000,-1.78666,-2.13936
12.90000,-1.79506,-2.15614
12.95000,-1.80320,-2.16781
13.00000,-1.81146,-2.18007
13.05000,-1.81986,-2.18276
13.10000,-1.82800,-2.20211
13.15000,-1.83640,-2.19733
13.20000,-1.84480,-2.22137
13.25000,-1.85306,-2.22155
13.30000,-1.86133,-2.25033
13.35000,-1.86986,-2.25374
13.40000,-1.87826,-2.28190
13.45000,-1.88666,-2.28223
13.50000,-1.89493,-2.30915
13.55000,-1.90320,-2.31540
13.60000,-1.91173,-2.34037
13.65000,-1.92000,-2.34608
13.70000,-1.92813,-2.36584
13.75000,-1.93666,-2.37617
13.80000,-1.94506,-2.39644
13.85000,-1.95306,-2.40818
13.90000,-1.96146,-2.42681
13.95000,-1.97000,-2.43706
14.00000,-1.97800,-2.45262
14.05000,-1.98626,-2.45971
14.10000,-1.99480,-2.48259
14.15000,-2.00320,-2.49393
14.20000,-2.01146,-2.51655
14.25000,-2.01986,-2.52400
14.30000,-2.02826,-2.52479
14.35000,-2.03653,-2.55177
14.40000,-2.04506,-2.54947
14.45000,-2.05333,-2.57917
14.50000,-2.06159,-2.58879
14.55000,-2.07000,-2.60634
14.60000,-2.07813,-2.61783
14.65000,-2.08653,-2.62756
14.70000,-2.09493,-2.64927
14.75000,-2.10306,-2.66280
14.80000,-2.11159,-2.67264
14.85000,-2.11999,-2.69000
14.90000,-2.12813,-2.69704
14.95000,-2.13653,-2.71673
15.00000,-2.14519,-2.72685
15.05000,-2.15333,-2.74582
15.10000,-2.16146,-2.75318
15.15000,-2.17013,-2.76731
15.20000,-2.17839,-2.77860
15.25000,-2.18666,-2.79337
15.30000,-2.19506,-2.80843
15.35000,-2.20346,-2.82011
15.40000,-2.21159,-2.83050
15.45000,-2.21986,-2.84552
15.50000,-2.22813,-2.85707
15.55000,-2.23653,-2.87529
15.60000,-2.24493,-2.88469
15.65000,-2.25306,-2.90037
15.70000,-2.26146,-2.90925
15.75000,-2.26999,-2.92471
15.80000,-2.27813,-2.93774
15.85000,-2.28653,-2.95427
15.90000,-2.29506,-2.96344
15.95000,-2.30333,-2.97726
16.00000,-2.31159,-2.98310
16.05000,-2.32013,-2.99954
16.10000,-2.32839,-3.01279
16.15000,-2.33653,-3.02546
16.20000,-2.34479,-3.03895
16.25000,-2.35346,-3.04956
16.30000,-2.36146,-3.05832
16.35000,-2.36973,-3.06732
16.40000,-2.37813,-3.08318
16.45000,-2.38639,-3.10077
16.50000,-2.39466,-3.10970
16.55000,-2.40306,-3.11990
16.60000,-2.41159,-3.12649
16.65000,-2.41999,-3.14454
16.70000,-2.42813,-3.15496
16.75000,-2.43653,-3.17071
16.80000,-2.44506,-3.18174
16.85000,-2.45333,-3.19422
16.90000,-2.46146,-3.20401
16.95000,-2.47013,-3.21722
17.00000,-2.47839,-3.23080
17.05000,-2.48639,-3.24159
17.10000,-2.49479,-3.25264
17.15000,-2.50333,-3.26270
17.20000,-2.51133,-3.27489
17.25000,-2.51959,-3.28827
17.30000,-2.52826,-3.29949
17.35000,-2.53666,-3.31491
17.40000,-2.54493,-3.32302
17.45000,-2.55333,-3.33664
17.50000,-2.56173,-3.34936
17.55000,-2.56999,-3.36073
17.60000,-2.57839,-3.37332
17.65000,-2.58666,-3.38317
17.70000,-2.59506,-3.39215
17.75000,-2.60333,-3.40760
17.80000,-2.61146,-3.41845
17.85000,-2.61999,-3.43117
17.90000,-2.62826,-3.44057
17.95000,-2.63639,-3.45288
18.00000,-2.64479,-3.46107
18.05000,-2.65333,-3.47703
18.10000,-2.66133,-3.48682
18.15000,-2.66959,-3.50224
18.20000,-2.67839,-3.50977
18.25000,-2.68653,-3.52555
18.30000,-2.69479,-3.53267
18.35000,-2.70333,-3.55007
18.40000,-2.71173,-3.55826
18.45000,-2.71986,-3.57395
18.50000,-2.72826,-3.58124
18.55000,-2.73666,-3.59480
18.60000,-2.74479,-3.60341
18.65000,-2.75306,-3.61963
18.70000,-2.76133,-3.62863
18.75000,-2.76999,-3.64136
18.80000,-2.77839,-3.64921
18.85000,-2.78653,-3.67119
18.90000,-2.79493,-3.67401
18.95000,-2.80333,-3.69524
19.00000,-2.81159,-3.70153
19.05000,-2.81986,-3.71858
19.10000,-2.82853,-3.72685
19.15000,-2.83666,-3.74512
19.20000,-2.84493,-3.75001
19.25000,-2.85346,-3.77027
19.30000,-2.86186,-3.77475
19.35000,-2.86999,-3.79335
19.40000,-2.87826,-3.79949
19.45000,-2.88666,-3.81463
19.50000,-2.89479,-3.82418
19.55000,-2.90306,-3.83656
19.60000,-2.91146,-3.84703
19.65000,-2.91973,-3.86050
19.70000,-2.92799,-3.86999
19.75000,-2.93639,-3.88378
19.80000,-2.94479,-3.89266
19.85000,-2.95333,-3.90871
19.90000,-2.96159,-3.91705
19.95000,-2.96986,-3.92940
20.00000,-2.97839,-3.93911
20.05000,-2.98666,-3.95613
20.10000,-2.99479,-3.95916
20.15000,-3.00333,-3.97665
20.20000,-3.01173,-3.98381
20.25000,-3.01973,-3.99711
20.30000,-3.02813,-4.00454
20.35000,-3.03666,-4.01996
20.40000,-3.04466,-4.02610
20.45000,-3.05293,-4.03915
20.50000,-3.06159,-4.04741
20.55000,-3.06986,-4.06279
20.60000,-3.07813,-4.06883
20.65000,-3.08666,-4.08080
20.70000,-3.09493,-4.09333
20.75000,-3.10333,-4.10107
20.80000,-3.11159,-4.11373
20.85000,-3.11999,-4.12127
20.90000,-3.12839,-4.13422
20.95000,-3.13666,-4.14187
21.00000,-3.14479,-4.15339
21.05000,-3.15333,-4.16180
21.10000,-3.16159,-4.17447
21.15000,-3.16959,-4.18005
21.20000,-3.17813,-4.19576
21.25000,-3.18666,-4.19759
21.30000,-3.19466,-4.21466
21.35000,-3.20306,-4.21908
21.40000,-3.21186,-4.23189
21.45000,-3.21999,-4.24017
21.50000,-3.22813,-4.24936
21.55000,-3.23679,-4.25979
21.60000,-3.24506,-4.26710
21.65000,-3.25319,-4.27855
21.70000,-3.26173,-4.28520
21.75000,-3.27013,-4.29633
21.80000,-3.27826,-4.30322
21.85000,-3.28653,-4.31292
21.90000,-3.29493,-4.32175
21.95000,-3.30346,-4.33179
22.00000,-3.31159,-4.33774
22.05000,-3.31973,-4.35020
22.10000,-3.32813,-4.35248
22.15000,-3.33666,-4.36879
22.20000,-3.34479,-4.37117
22.25000,-3.35319,-4.38559
22.30000,-3.36173,-4.38697
22.35000,-3.36999,-4.40387
22.40000,-3.37813,-4.40437
22.45000,-3.38652,-4.42008
22.50000,-3.39506,-4.42073
22.55000,-3.40306,-4.43607
22.60000,-3.41132,-4.43595
22.65000,-3.41986,-4.45119
22.70000,-3.42813,-4.45307
22.75000,-3.43639,-4.46767
22.80000,-3.44479,-4.47010
22.85000,-3.45319,-4.48273
22.90000,-3.46146,-4.48697
22.95000,-3.46986,-4.50029
23.00000,-3.47812,-4.50005
23.05000,-3.48666,-4.51763
23.10000,-3.49492,-4.51849
23.15000,-3.50319,-4.53125
23.20000,-3.51172,-4.53360
23.25000,-3.51999,-4.54840
23.30000,-3.52812,-4.55051
23.35000,-3.53652,-4.56103
23.40000,-3.54492,-4.56588
23.45000,-3.55292,-4.57393
23.50000,-3.56132,-4.58104
23.55000,-3.56999,-4.58811
23.60000,-3.57799,-4.59578
23.65000,-3.58626,-4.60193
23.70000,-3.59492,-4.60940
23.75000,-3.60319,-4.61643
23.80000,-3.61146,-4.62342
23.85000,-3.61999,-4.63011
23.90000,-3.62839,-4.63749
23.95000,-3.63666,-4.64091
24.00000,-3.64492,-4.65160
24.05000,-3.65319,-4.65621
24.10000,-3.66172,-4.66445
24.15000,-3.66999,-4.66858
24.20000,-3.67812,-4.67821
24.25000,-3.68666,-4.68035
24.30000,-3.69506,-4.69112
24.35000,-3.70306,-4.69061
24.40000,-3.71146,-4.70276
24.45000,-3.71999,-4.70299
24.50000,-3.72799,-4.71308
24.55000,-3.73639,-4.71410
24.60000,-3.74519,-4.72582
24.65000,-3.75332,-4.72734
24.70000,-3.76146,-4.73782
24.75000,-3.76999,-4.73761
24.80000,-3.77839,-4.74844
24.85000,-3.78652,-4.75046
24.90000,-3.79506,-4.75895
24.95000,-3.80332,-4.75876
25.00000,-3.81159,-4.77075
25.05000,-3.81986,-4.76741
25.10000,-3.82812,-4.78003
25.15000,-3.83652,-4.77543
25.20000,-3.84479,-4.79012
25.25000,-3.85292,-4.78675
25.30000,-3.86146,-4.79815
25.35000,-3.86999,-4.79804
25.40000,-3.87812,-4.80969
25.45000,-3.88652,-4.80797
25.50000,-3.89506,-4.81879
25.55000,-3.90332,-4.82058
25.60000,-3.91146,-4.82799
25.65000,-3.91999,-4.83010
25.70000,-3.92839,-4.83751
25.75000,-3.93652,-4.84045
25.80000,-3.94492,-4.84673
25.85000,-3.95332,-4.84994
25.90000,-3.96146,-4.85516
25.95000,-3.96972,-4.85994
26.00000,-3.97812,-4.86465
26.05000,-3.98639,-4.86909
26.10000,-3.99466,-4.87292
26.15000,-4.00306,-4.87980
26.20000,-4.01146,-4.88141
26.25000,-4.01999,-4.88809
26.30000,-4.02826,-4.89116
26.35000,-4.03652,-4.89977
26.40000,-4.04506,-4.89735
26.45000,-4.05319,-4.90697
26.50000,-4.06132,-4.90649
26.55000,-4.06986,-4.91166
26.60000,-4.07826,-4.91654
26.65000,-4.08639,-4.92077
26.70000,-4.09479,-4.92192
26.75000,-4.10332,-4.92855
26.80000,-4.11146,-4.93112
26.85000,-4.11972,-4.93480
26.90000,-4.12839,-4.93838
26.95000,-4.13666,-4.94252
27.00000,-4.14479,-4.94458
27.05000,-4.15332,-4.94623
27.10000,-4.16172,-4.95599
27.15000,-4.16999,-4.95136
27.20000,-4.17826,-4.96213
27.25000,-4.18666,-4.95608
27.30000,-4.19506,-4.96812
27.35000,-4.20332,-4.96258
27.40000,-4.21146,-4.97180
27.45000,-4.21999,-4.96837
27.50000,-4.22826,-4.97889
27.55000,-4.23639,-4.97198
27.60000,-4.24479,-4.98538
27.65000,-4.25332,-4.98055
27.70000,-4.26132,-4.98693
27.75000,-4.26972,-4.98999
27.80000,-4.27839,-4.99286
27.85000,-4.28666,-4.99611
27.90000,-4.29479,-4.99719
27.95000,-4.30346,-5.00204
28.00000,-4.31172,-5.00448
28.05000,-4.31999,-5.00702
28.10000,-4.32839,-5.00682
28.15000,-4.33679,-5.01352
28.20000,-4.34492,-5.01218
28.25000,-4.35319,-5.01935
28.30000,-4.36159,-5.01408
28.35000,-4.36999,-5.02521
28.40000,-4.37826,-5.01909
28.45000,-4.38639,-5.02368
28.50000,-4.39479,-5.02831
28.55000,-4.40332,-5.02518
28.60000,-4.41146,-5.03197
28.65000,-4.41986,-5.02610
28.70000,-4.42839,-5.03535
28.75000,-4.43666,-5.03240
28.80000,-4.44479,-5.03442
28.85000,-4.45319,-5.03417
28.90000,-4.46172,-5.04052
28.95000,-4.46986,-5.03217
29.00000,-4.47812,-5.04448
29.05000,-4.48666,-5.03518
29.10000,-4.49479,-5.04383
29.15000,-4.50306,-5.04091
29.20000,-4.51146,-5.04755
29.25000,-4.51972,-5.04125
29.30000,-4.52812,-5.05049
29.35000,-4.53652,-5.04802
29.40000,-4.54479,-5.05156
29.45000,-4.55332,-5.05192
29.50000,-4.56159,-5.05752
29.55000,-4.56986,-5.05346
29.60000,-4.57839,-5.05995
29.65000,-4.58652,-5.05791
29.70000,-4.59479,-5.06258
29.75000,-4.60332,-5.06228
29.80000,-4.61172,-5.06518
29.85000,-4.61972,-5.06602
29.90000,-4.62812,-5.06648
29.95000,-4.63666,-5.06866
30.00000,-4.64466,-5.06948
30.05000,-4.65292,-5.06996
30.10000,-4.66146,-5.06974
30.15000,-4.66986,-5.07314
30.20000,-4.67812,-5.07232
30.25000,-4.68652,-5.07228
30.30000,-4.69492,-5.07073
30.35000,-4.70332,-5.06868
30.40000,-4.71159,-5.06845
30.45000,-4.71986,-5.06498
30.50000,-4.72826,-5.06438
30.55000,-4.73666,-5.06809
30.60000,-4.74479,-5.06883
30.65000,-4.75346,-5.07115
30.70000,-4.76172,-5.07345
30.75000,-4.76986,-5.07499
30.80000,-4.77826,-5.07542
30.85000,-4.78665,-5.07619
30.90000,-4.79479,-5.08034
30.95000,-4.80319,-5.07989
31.00000,-4.81172,-5.08259
31.05000,-4.81999,-5.08364
31.10000,-4.82826,-5.08547
31.15000,-4.83679,-5.08634
31.20000,-4.84505,-5.08894
31.25000,-4.85332,-5.08901
31.30000,-4.86172,-5.09156
31.35000,-4.86999,-5.09131
31.40000,-4.87825,-5.09368
31.45000,-4.88652,-5.09306
31.50000,-4.89479,-5.09630
31.55000,-4.90332,-5.09526
31.60000,-4.91145,-5.09978
31.65000,-4.91959,-5.09810
31.70000,-4.92812,-5.10140
31.75000,-4.93665,-5.09988
31.80000,-4.94492,-5.10607
31.85000,-4.95319,-5.10104
31.90000,-4.96185,-5.10714
31.95000,-4.97012,-5.10481
32.00000,-4.97812,-5.10733
32.05000,-4.98665,-5.10393
32.10000,-4.99505,-5.10961
32.15000,-5.00319,-5.10521
32.20000,-5.01145,-5.10719
32.25000,-5.01999,-5.10680
32.30000,-5.02812,-5.10813
32.35000,-5.03639,-5.10529
32.40000,-5.04492,-5.10817
32.45000,-5.05305,-5.10300
32.50000,-5.06132,-5.11123
32.55000,-5.06985,-5.10331
32.60000,-5.07825,-5.10861
32.65000,-5.08665,-5.10973
32.70000,-5.09505,-5.10763
32.75000,-5.10319,-5.10811
32.80000,-5.11172,-5.10864
32.85000,-5.11999,-5.10942
32.90000,-5.12812,-5.10783
32.95000,-5.13665,-5.10864
33.00000,-5.14492,-5.10982
33.05000,-5.15305,-5.10737
33.10000,-5.16145,-5.10920
33.15000,-5.16999,-5.10802
33.20000,-5.17799,-5.11164
33.25000,-5.18625,-5.10532
33.30000,-5.19492,-5.10920
33.35000,-5.20319,-5.10555
33.40000,-5.21145,-5.10857
33.45000,-5.21985,-5.10379
33.50000,-5.22839,-5.10708
33.55000,-5.23665,-5.10239
33.60000,-5.24505,-5.10614
33.65000,-5.25332,-5.09985
33.70000,-5.26172,-5.10225
33.75000,-5.26999,-5.09835
33.80000,-5.27812,-5.10006
33.85000,-5.28665,-5.09471
33.90000,-5.29492,-5.09822
33.95000,-5.30305,-5.09319
34.00000,-5.31145,-5.09390
34.05000,-5.31999,-5.09149
34.10000,-5.32799,-5.09127
34.15000,-5.33625,-5.08797
34.20000,-5.34505,-5.09027
34.25000,-5.35319,-5.08831
34.30000,-5.36145,-5.08595
34.35000,-5.37012,-5.08830
34.40000,-5.37839,-5.08740
34.45000,-5.38652,-5.08510
34.50000,-5.39492,-5.08313
34.55000,-5.40319,-5.08747
34.60000,-5.41159,-5.08202
34.65000,-5.41985,-5.08534
34.70000,-5.42812,-5.08113
34.75000,-5.43665,-5.08583
34.80000,-5.44492,-5.07711
34.85000,-5.45319,-5.08087
34.90000,-5.46159,-5.07671
34.95000,-5.46999,-5.07819
35.00000,-5.47812,-5.07349
35.05000,-5.48652,-5.07752
35.10000,-5.49505,-5.07125
35.15000,-5.50332,-5.07433
35.20000,-5.51159,-5.06965
35.25000,-5.51999,-5.07075
35.30000,-5.52852,-5.06821
35.35000,-5.53652,-5.06579
35.40000,-5.54479,-5.04653
35.45000,-5.55345,-5.03809
35.50000,-5.56145,-5.03796
35.55000,-5.56972,-5.03744
35.60000,-5.57812,-5.03503
35.65000,-5.58639,-5.03504
35.70000,-5.59465,-5.03430
35.75000,-5.60319,-5.03486
35.80000,-5.61159,-5.03529
35.85000,-5.61999,-5.03430
35.90000,-5.62825,-5.03751
35.95000,-5.63652,-5.03375
36.00000,-5.64505,-5.03658
36.05000,-5.65332,-5.03429
