Time,Extension,Load
(sec),(mm),(N)
0.00000,-0.00027,-0.07318
0.05000,-0.00160,-0.07954
0.10000,-0.00653,-0.07743
0.15000,-0.01547,-0.08986
0.20000,-0.02587,-0.09779
0.25000,-0.03613,-0.11106
0.30000,-0.04613,-0.12067
0.35000,-0.05560,-0.12964
0.40000,-0.06453,-0.13643
0.45000,-0.07360,-0.14625
0.50000,-0.08240,-0.15237
0.55000,-0.09093,-0.15984
0.60000,-0.09960,-0.16574
0.65000,-0.10813,-0.17412
0.70000,-0.11640,-0.18380
0.75000,-0.12493,-0.18562
0.80000,-0.13333,-0.19470
0.85000,-0.14147,-0.20298
0.90000,-0.14987,-0.20829
0.95000,-0.15867,-0.21637
1.00000,-0.16680,-0.22046
1.05000,-0.17507,-0.22890
1.10000,-0.18360,-0.23572
1.15000,-0.19187,-0.24333
1.20000,-0.20013,-0.24531
1.25000,-0.20867,-0.25874
1.30000,-0.21707,-0.25841
1.35000,-0.22547,-0.27105
1.40000,-0.23373,-0.27496
1.45000,-0.24187,-0.28198
1.50000,-0.25040,-0.28735
1.55000,-0.25867,-0.29602
1.60000,-0.26680,-0.30110
1.65000,-0.27533,-0.30800
1.70000,-0.28360,-0.31504
1.75000,-0.29160,-0.31987
1.80000,-0.30013,-0.32941
1.85000,-0.30880,-0.33362
1.90000,-0.31693,-0.34280
1.95000,-0.32520,-0.34801
2.00000,-0.33387,-0.35364
2.05000,-0.34200,-0.36328
2.10000,-0.35040,-0.36665
2.15000,-0.35867,-0.37540
2.20000,-0.36693,-0.38104
2.25000,-0.37520,-0.38871
2.30000,-0.38360,-0.39442
2.35000,-0.39187,-0.40072
2.40000,-0.40027,-0.40836
2.45000,-0.40853,-0.41419
2.50000,-0.41667,-0.42216
2.55000,-0.42520,-0.42715
2.60000,-0.43360,-0.43540
2.65000,-0.44173,-0.44011
2.70000,-0.45027,-0.44978
2.75000,-0.45880,-0.45413
2.80000,-0.46693,-0.46249
2.85000,-0.47520,-0.46728
2.90000,-0.48387,-0.47641
2.95000,-0.49200,-0.47955
3.00000,-0.50013,-0.49002
3.05000,-0.50853,-0.49271
3.10000,-0.51693,-0.50248
3.15000,-0.52507,-0.50724
3.20000,-0.53347,-0.51485
3.25000,-0.54187,-0.51918
3.30000,-0.55000,-0.52839
3.35000,-0.55840,-0.53250
3.40000,-0.56680,-0.54184
3.45000,-0.57520,-0.54676
3.50000,-0.58360,-0.55372
3.55000,-0.59187,-0.56071
3.60000,-0.60013,-0.56639
3.65000,-0.60867,-0.57387
3.70000,-0.61693,-0.58048
3.75000,-0.62520,-0.58671
3.80000,-0.63373,-0.59403
3.85000,-0.64200,-0.60017
3.90000,-0.65000,-0.60638
3.95000,-0.65853,-0.61292
4.00000,-0.66693,-0.61926
4.05000,-0.67507,-0.62743
4.10000,-0.68346,-0.63252
4.15000,-0.69200,-0.63979
4.20000,-0.70026,-0.64657
4.25000,-0.70853,-0.65363
4.30000,-0.71706,-0.65877
4.35000,-0.72546,-0.66791
4.40000,-0.73360,-0.67306
4.45000,-0.74213,-0.68023
4.50000,-0.75040,-0.68689
4.55000,-0.75866,-0.69342
4.60000,-0.76706,-0.70078
4.65000,-0.77520,-0.70624
4.70000,-0.78373,-0.71390
4.75000,-0.79200,-0.71867
4.80000,-0.80013,-0.72824
4.85000,-0.80866,-0.73204
4.90000,-0.81693,-0.74126
4.95000,-0.82506,-0.74586
5.00000,-0.83360,-0.75370
5.05000,-0.84213,-0.75975
5.10000,-0.85026,-0.76664
5.15000,-0.85853,-0.77264
5.20000,-0.86706,-0.78095
5.25000,-0.87533,-0.78559
5.30000,-0.88360,-0.79405
5.35000,-0.89213,-0.79969
5.40000,-0.90053,-0.80727
5.45000,-0.90866,-0.81223
5.50000,-0.91693,-0.81985
5.55000,-0.92520,-0.82598
5.60000,-0.93346,-0.83314
5.65000,-0.94186,-0.83942
5.70000,-0.95000,-0.84587
5.75000,-0.95853,-0.85276
5.80000,-0.96680,-0.85885
5.85000,-0.97506,-0.86607
5.90000,-0.98360,-0.87218
5.95000,-0.99213,-0.87918
6.00000,-1.00026,-0.88599
6.05000,-1.00853,-0.89212
6.10000,-1.01706,-0.89895
6.15000,-1.02520,-0.90470
6.20000,-1.03333,-0.91152
6.25000,-1.04186,-0.91735
6.30000,-1.05026,-0.92549
6.35000,-1.05840,-0.93041
6.40000,-1.06666,-0.93802
6.45000,-1.07506,-0.94318
6.50000,-1.08320,-0.95073
6.55000,-1.09160,-0.95744
6.60000,-1.10013,-0.96196
6.65000,-1.10866,-0.97189
6.70000,-1.11706,-0.97645
6.75000,-1.12533,-0.98450
6.80000,-1.13360,-0.98967
6.85000,-1.14200,-0.99680
6.90000,-1.15026,-1.00141
6.95000,-1.15853,-1.01145
7.00000,-1.16706,-1.01435
7.05000,-1.17533,-1.02382
7.10000,-1.18346,-1.02774
7.15000,-1.19186,-1.03443
7.20000,-1.20026,-1.04292
7.25000,-1.20840,-1.04693
7.30000,-1.21666,-1.05583
7.35000,-1.22533,-1.05968
7.40000,-1.23346,-1.06742
7.45000,-1.24186,-1.07236
7.50000,-1.25040,-1.08312
7.55000,-1.25866,-1.08472
7.60000,-1.26693,-1.09606
7.65000,-1.27546,-1.09655
7.70000,-1.28373,-1.10702
7.75000,-1.29200,-1.11134
7.80000,-1.30053,-1.12050
7.85000,-1.30866,-1.12405
7.90000,-1.31706,-1.13032
7.95000,-1.32533,-1.13770
8.00000,-1.33360,-1.14267
8.05000,-1.34200,-1.15192
8.10000,-1.35026,-1.15397
8.15000,-1.35840,-1.16317
8.20000,-1.36693,-1.16589
8.25000,-1.37546,-1.17683
8.30000,-1.38360,-1.17925
8.35000,-1.39186,-1.18977
8.40000,-1.40053,-1.18876
8.45000,-1.40866,-1.20257
8.50000,-1.41693,-1.20197
8.55000,-1.42546,-1.21421
8.60000,-1.43373,-1.21637
8.65000,-1.44200,-1.22485
8.70000,-1.45026,-1.22734
8.75000,-1.45853,-1.23608
8.80000,-1.46680,-1.24135
8.85000,-1.47520,-1.24774
8.90000,-1.48333,-1.25266
8.95000,-1.49186,-1.25940
9.00000,-1.50026,-1.26506
9.05000,-1.50840,-1.27048
9.10000,-1.51693,-1.27817
9.15000,-1.52546,-1.28200
9.20000,-1.53346,-1.29177
9.25000,-1.54186,-1.29288
9.30000,-1.55053,-1.30112
9.35000,-1.55866,-1.30831
9.40000,-1.56680,-1.31143
9.45000,-1.57520,-1.31971
9.50000,-1.58360,-1.32463
9.55000,-1.59173,-1.32824
9.60000,-1.60000,-1.33693
9.65000,-1.60853,-1.33880
9.70000,-1.61666,-1.35043
9.75000,-1.62506,-1.35023
9.80000,-1.63346,-1.35992
9.85000,-1.64186,-1.36346
9.90000,-1.65026,-1.37116
9.95000,-1.65853,-1.37644
10.00000,-1.66693,-1.38126
10.05000,-1.67546,-1.38779
10.10000,-1.68373,-1.39258
10.15000,-1.69186,-1.39992
10.20000,-1.70040,-1.40463
10.25000,-1.70866,-1.40926
10.30000,-1.71680,-1.41531
10.35000,-1.72520,-1.42014
10.40000,-1.73360,-1.42656
10.45000,-1.74160,-1.43301
10.50000,-1.74986,-1.43544
10.55000,-1.75866,-1.44293
10.60000,-1.76680,-1.44677
10.65000,-1.77520,-1.45415
10.70000,-1.78386,-1.45878
10.75000,-1.79213,-1.46596
10.80000,-1.80040,-1.46844
10.85000,-1.80880,-1.47518
10.90000,-1.81706,-1.48061
10.95000,-1.82546,-1.48585
11.00000,-1.83386,-1.49072
11.05000,-1.84186,-1.49548
11.10000,-1.85040,-1.50047
11.15000,-1.85866,-1.50786
11.20000,-1.86693,-1.51167
11.25000,-1.87533,-1.51859
11.30000,-1.88360,-1.52103
11.35000,-1.89173,-1.52707
11.40000,-1.90026,-1.53345
11.45000,-1.90866,-1.53887
11.50000,-1.91693,-1.54303
11.55000,-1.92520,-1.54818
11.60000,-1.93386,-1.55017
11.65000,-1.94200,-1.56095
11.70000,-1.95026,-1.56019
11.75000,-1.95866,-1.56999
11.80000,-1.96680,-1.56939
11.85000,-1.97493,-1.57642
11.90000,-1.98333,-1.58254
11.95000,-1.99173,-1.58540
12.00000,-2.00013,-1.59244
12.05000,-2.00840,-1.59514
12.10000,-2.01653,-1.60001
12.15000,-2.02520,-1.60697
12.20000,-2.03359,-1.60879
12.25000,-2.04173,-1.61722
12.30000,-2.05013,-1.61750
12.35000,-2.05866,-1.62426
12.40000,-2.06680,-1.63092
12.45000,-2.07520,-1.63243
12.50000,-2.08373,-1.64002
12.55000,-2.09199,-1.64031
12.60000,-2.10026,-1.64913
12.65000,-2.10853,-1.65070
12.70000,-2.11693,-1.65753
12.75000,-2.12506,-1.65976
12.80000,-2.13346,-1.66595
12.85000,-2.14199,-1.66879
12.90000,-2.15013,-1.67585
12.95000,-2.15839,-1.67682
13.00000,-2.16679,-1.68549
13.05000,-2.17533,-1.68585
13.10000,-2.18359,-1.69344
13.15000,-2.19186,-1.69541
13.20000,-2.20026,-1.70216
13.25000,-2.20879,-1.70399
13.30000,-2.21706,-1.70968
13.35000,-2.22533,-1.71357
13.40000,-2.23386,-1.71929
13.45000,-2.24199,-1.72197
13.50000,-2.25013,-1.72580
13.55000,-2.25866,-1.72982
13.60000,-2.26693,-1.73597
13.65000,-2.27493,-1.73826
13.70000,-2.28333,-1.74189
13.75000,-2.29199,-1.74738
13.80000,-2.30026,-1.75107
13.85000,-2.30853,-1.75544
13.90000,-2.31706,-1.75840
13.95000,-2.32546,-1.76482
14.00000,-2.33373,-1.76531
14.05000,-2.34213,-1.77233
14.10000,-2.35053,-1.77245
14.15000,-2.35879,-1.78133
14.20000,-2.36706,-1.78013
14.25000,-2.37519,-1.78621
14.30000,-2.38359,-1.78881
14.35000,-2.39186,-1.79172
14.40000,-2.39999,-1.79749
14.45000,-2.40853,-1.79830
14.50000,-2.41679,-1.80356
14.55000,-2.42493,-1.80709
14.60000,-2.43359,-1.80980
14.65000,-2.44213,-1.81532
14.70000,-2.45026,-1.81649
14.75000,-2.45866,-1.82158
14.80000,-2.46719,-1.82203
14.85000,-2.47533,-1.82766
14.90000,-2.48359,-1.82916
14.95000,-2.49213,-1.83160
15.00000,-2.50039,-1.83562
15.05000,-2.50853,-1.83599
15.10000,-2.51693,-1.84056
15.15000,-2.52519,-1.84200
15.20000,-2.53373,-1.84543
15.25000,-2.54186,-1.84875
15.30000,-2.55013,-1.84913
15.35000,-2.55866,-1.85578
15.40000,-2.56693,-1.85552
15.45000,-2.57506,-1.86285
15.50000,-2.58359,-1.86256
15.55000,-2.59213,-1.86776
15.60000,-2.60026,-1.86981
15.65000,-2.60853,-1.87373
15.70000,-2.61706,-1.87683
15.75000,-2.62533,-1.87945
15.80000,-2.63346,-1.88267
15.85000,-2.64199,-1.88587
15.90000,-2.65026,-1.88821
15.95000,-2.65839,-1.89181
16.00000,-2.66666,-1.89370
16.05000,-2.67519,-1.89811
16.10000,-2.68333,-1.89870
16.15000,-2.69173,-1.90498
16.20000,-2.70013,-1.90679
16.25000,-2.70866,-1.90931
16.30000,-2.71693,-1.91442
16.35000,-2.72519,-1.91557
16.40000,-2.73359,-1.92117
16.45000,-2.74199,-1.92106
16.50000,-2.75039,-1.92704
16.55000,-2.75853,-1.92670
16.60000,-2.76706,-1.93189
16.65000,-2.77533,-1.93407
16.70000,-2.78346,-1.93822
16.75000,-2.79186,-1.93768
16.80000,-2.80026,-1.94502
16.85000,-2.80839,-1.94448
16.90000,-2.81666,-1.95131
16.95000,-2.82533,-1.94951
17.00000,-2.83359,-1.95724
17.05000,-2.84186,-1.95529
17.10000,-2.85053,-1.96345
17.15000,-2.85866,-1.96165
17.20000,-2.86706,-1.96820
17.25000,-2.87546,-1.96605
17.30000,-2.88386,-1.97512
17.35000,-2.89213,-1.97074
17.40000,-2.90026,-1.98045
17.45000,-2.90839,-1.97559
17.50000,-2.91693,-1.98307
17.55000,-2.92519,-1.98190
17.60000,-2.93333,-1.98659
17.65000,-2.94199,-1.98769
17.70000,-2.95026,-1.98949
17.75000,-2.95839,-1.99307
17.80000,-2.96693,-1.99430
17.85000,-2.97546,-1.99643
17.90000,-2.98359,-2.00110
17.95000,-2.99186,-1.99958
18.00000,-3.00053,-2.00685
18.05000,-3.00866,-2.00658
18.10000,-3.01693,-2.01065
18.15000,-3.02533,-2.01233
18.20000,-3.03373,-2.01511
18.25000,-3.04186,-2.01896
18.30000,-3.05013,-2.02053
18.35000,-3.05853,-2.02123
18.40000,-3.06679,-2.02726
18.45000,-3.07506,-2.02557
18.50000,-3.08319,-2.03092
18.55000,-3.09186,-2.02946
18.60000,-3.10026,-2.03664
18.65000,-3.10839,-2.03247
18.70000,-3.11693,-2.04106
18.75000,-3.12546,-2.03731
18.80000,-3.13359,-2.04410
18.85000,-3.14186,-2.04196
18.90000,-3.15039,-2.04578
18.95000,-3.15866,-2.04815
19.00000,-3.16679,-2.04818
19.05000,-3.17519,-2.04886
19.10000,-3.18359,-2.05183
19.15000,-3.19173,-2.05192
19.20000,-3.20013,-2.05402
19.25000,-3.20853,-2.05511
19.30000,-3.21666,-2.05676
19.35000,-3.22493,-2.05501
19.40000,-3.23333,-2.05952
19.45000,-3.24186,-2.05683
19.50000,-3.25026,-2.06064
19.55000,-3.25853,-2.05856
19.60000,-3.26693,-2.05908
19.65000,-3.27533,-2.06014
19.70000,-3.28359,-2.06052
19.75000,-3.29186,-2.05913
19.80000,-3.30039,-2.06320
19.85000,-3.30866,-2.05969
19.90000,-3.31679,-2.06707
19.95000,-3.32519,-2.06151
20.00000,-3.33359,-2.06608
20.05000,-3.34186,-2.06426
20.10000,-3.35013,-2.06832
20.15000,-3.35866,-2.06570
20.20000,-3.36693,-2.06871
20.25000,-3.37519,-2.06810
20.30000,-3.38373,-2.06985
20.35000,-3.39199,-2.06929
20.40000,-3.40026,-2.07137
20.45000,-3.40879,-2.07196
20.50000,-3.41706,-2.07229
20.55000,-3.42546,-2.07281
20.60000,-3.43386,-2.07539
20.65000,-3.44186,-2.07435
20.70000,-3.45039,-2.07652
20.75000,-3.45866,-2.07735
20.80000,-3.46666,-2.07733
20.85000,-3.47519,-2.07944
20.90000,-3.48359,-2.08063
20.95000,-3.49172,-2.08082
21.00000,-3.50026,-2.08386
21.05000,-3.50892,-2.08173
21.10000,-3.51692,-2.08483
21.15000,-3.52532,-2.08480
21.20000,-3.53386,-2.08496
21.25000,-3.54212,-2.08644
21.30000,-3.55039,-2.08514
21.35000,-3.55879,-2.08953
21.40000,-3.56706,-2.08710
21.45000,-3.57532,-2.09069
21.50000,-3.58359,-2.09014
21.55000,-3.59186,-2.09168
21.60000,-3.60039,-2.09361
21.65000,-3.60866,-2.09420
21.70000,-3.61679,-2.09588
21.75000,-3.62532,-2.09599
21.80000,-3.63372,-2.09722
21.85000,-3.64186,-2.09918
21.90000,-3.65026,-2.09958
21.95000,-3.65879,-2.10204
22.00000,-3.66692,-2.10105
22.05000,-3.67519,-2.10236
22.10000,-3.68372,-2.10563
22.15000,-3.69199,-2.10334
22.20000,-3.70012,-2.10678
22.25000,-3.70852,-2.10495
22.30000,-3.71692,-2.10900
22.35000,-3.72506,-2.10715
22.40000,-3.73332,-2.11062
22.45000,-3.74172,-2.10709
22.50000,-3.75012,-2.11108
22.55000,-3.75839,-2.11185
22.60000,-3.76679,-2.11332
22.65000,-3.77532,-2.11208
22.70000,-3.78372,-2.11301
22.75000,-3.79186,-2.11508
22.80000,-3.80026,-2.11504
22.85000,-3.80879,-2.11636
22.90000,-3.81706,-2.11718
22.95000,-3.82519,-2.11399
23.00000,-3.83372,-2.12024
23.05000,-3.84199,-2.11658
23.10000,-3.85012,-2.12136
23.15000,-3.85852,-2.11721
23.20000,-3.86706,-2.12046
23.25000,-3.87506,-2.12094
23.30000,-3.88332,-2.12096
23.35000,-3.89199,-2.12049
23.40000,-3.90026,-2.12508
23.45000,-3.90852,-2.11606
23.50000,-3.91706,-2.12865
23.55000,-3.92532,-2.11899
23.60000,-3.93359,-2.12696
23.65000,-3.94212,-2.11918
23.70000,-3.95039,-2.12711
23.75000,-3.95879,-2.11665
23.80000,-3.96706,-2.13310
23.85000,-3.97519,-2.11285
23.90000,-3.98372,-2.13311
23.95000,-3.99199,-2.11401
24.00000,-4.00012,-2.12566
24.05000,-4.00866,-2.12121
24.10000,-4.01706,-2.11731
24.15000,-4.02519,-2.12345
24.20000,-4.03359,-2.11500
24.25000,-4.04226,-2.12225
24.30000,-4.05026,-2.11392
24.35000,-4.05852,-2.10926
24.40000,-4.06719,-2.11703
24.45000,-4.07532,-2.11082
24.50000,-4.08372,-2.11541
24.55000,-4.09212,-2.10821
24.60000,-4.10052,-2.11410
24.65000,-4.10866,-2.10758
24.70000,-4.11692,-2.10793
24.75000,-4.12519,-2.11157
24.80000,-4.13359,-2.10906
24.85000,-4.14186,-2.10604
24.90000,-4.14999,-2.11012
24.95000,-4.15852,-2.10576
25.00000,-4.16692,-2.10929
25.05000,-4.17506,-2.10382
25.10000,-4.18359,-2.11229
25.15000,-4.19212,-2.09670
25.20000,-4.20026,-2.11628
25.25000,-4.20852,-2.09137
25.30000,-4.21706,-2.11319
25.35000,-4.22532,-2.09225
25.40000,-4.23346,-2.10879
25.45000,-4.24186,-2.09062
25.50000,-4.25026,-2.10597
25.55000,-4.25839,-2.08902
25.60000,-4.26666,-2.10333
25.65000,-4.27506,-2.08421
25.70000,-4.28346,-2.10307
25.75000,-4.29172,-2.08702
25.80000,-4.30012,-2.09471
25.85000,-4.30866,-2.09022
25.90000,-4.31706,-2.09325
25.95000,-4.32519,-2.08978
26.00000,-4.33359,-2.08793
26.05000,-4.34212,-2.09169
26.10000,-4.35039,-2.08829
26.15000,-4.35852,-2.08976
26.20000,-4.36706,-2.08394
26.25000,-4.37532,-2.09712
26.30000,-4.38346,-2.07821
26.35000,-4.39186,-2.09238
26.40000,-4.40039,-2.08367
26.45000,-4.40839,-2.08856
26.50000,-4.41666,-2.08191
26.55000,-4.42532,-2.08846
26.60000,-4.43359,-2.08348
26.65000,-4.44186,-2.08683
26.70000,-4.45052,-2.08746
26.75000,-4.45892,-2.08702
26.80000,-4.46706,-2.08119
26.85000,-4.47546,-2.09409
26.90000,-4.48372,-2.08140
26.95000,-4.49212,-2.08946
27.00000,-4.50039,-2.08492
27.05000,-4.50852,-2.09201
27.10000,-4.51706,-2.08193
27.15000,-4.52532,-2.09229
27.20000,-4.53346,-2.08328
27.25000,-4.54199,-2.09216
27.30000,-4.55026,-2.08369
27.35000,-4.55839,-2.09043
27.40000,-4.56692,-2.08594
27.45000,-4.57546,-2.09134
27.50000,-4.58359,-2.08645
27.55000,-4.59186,-2.09029
27.60000,-4.60052,-2.08698
27.65000,-4.60866,-2.08910
27.70000,-4.61692,-2.08773
27.75000,-4.62532,-2.08740
27.80000,-4.63372,-2.08866
27.85000,-4.64186,-2.08749
27.90000,-4.65026,-2.08837
27.95000,-4.65839,-2.08515
28.00000,-4.66692,-2.08889
28.05000,-4.67519,-2.08651
28.10000,-4.68332,-2.08729
28.15000,-4.69186,-2.08573
28.20000,-4.70039,-2.08852
28.25000,-4.70852,-2.08706
28.30000,-4.71692,-2.08604
28.35000,-4.72546,-2.08699
28.40000,-4.73359,-2.08894
28.45000,-4.74185,-2.08561
28.50000,-4.75039,-2.08731
28.55000,-4.75879,-2.08859
28.60000,-4.76692,-2.08639
28.65000,-4.77519,-2.08894
28.70000,-4.78359,-2.08849
28.75000,-4.79185,-2.09019
28.80000,-4.80012,-2.08930
28.85000,-4.80852,-2.09144
28.90000,-4.81679,-2.09028
28.95000,-4.82506,-2.09383
29.00000,-4.83345,-2.09183
29.05000,-4.84185,-2.09509
29.10000,-4.85039,-2.09435
29.15000,-4.85865,-2.09781
29.20000,-4.86692,-2.09617
29.25000,-4.87546,-2.09893
29.30000,-4.88372,-2.09958
29.35000,-4.89199,-2.10116
29.40000,-4.90039,-2.10188
29.45000,-4.90865,-2.10288
29.50000,-4.91679,-2.10360
29.55000,-4.92519,-2.10550
29.60000,-4.93372,-2.10590
29.65000,-4.94185,-2.10728
29.70000,-4.95012,-2.10985
29.75000,-4.95879,-2.11042
29.80000,-4.96692,-2.11191
29.85000,-4.97519,-2.11312
29.90000,-4.98372,-2.11520
29.95000,-4.99212,-2.11539
30.00000,-5.00039,-2.11732
30.05000,-5.00879,-2.11837
30.10000,-5.01719,-2.12089
30.15000,-5.02559,-2.11971
30.20000,-5.03385,-2.12390
30.25000,-5.04185,-2.12220
30.30000,-5.05039,-2.12498
30.35000,-5.05865,-2.12572
30.40000,-5.06665,-2.12733
30.45000,-5.07519,-2.12720
30.50000,-5.08372,-2.13100
30.55000,-5.09185,-2.13212
30.60000,-5.10039,-2.13278
30.65000,-5.10892,-2.13511
30.70000,-5.11705,-2.13704
30.75000,-5.12532,-2.13687
30.80000,-5.13399,-2.13847
30.85000,-5.14212,-2.14032
30.90000,-5.15039,-2.14217
30.95000,-5.15879,-2.14143
31.00000,-5.16692,-2.14293
31.05000,-5.17519,-2.14634
31.10000,-5.18359,-2.14453
31.15000,-5.19185,-2.14728
31.20000,-5.20012,-2.14815
31.25000,-5.20839,-2.15131
31.30000,-5.21652,-2.14973
31.35000,-5.22505,-2.15216
31.40000,-5.23345,-2.15386
31.45000,-5.24172,-2.15699
31.50000,-5.25025,-2.15607
31.55000,-5.25879,-2.15828
31.60000,-5.26692,-2.16104
31.65000,-5.27519,-2.16148
31.70000,-5.28385,-2.16184
31.75000,-5.29199,-2.16540
31.80000,-5.30012,-2.16713
31.85000,-5.30852,-2.16491
31.90000,-5.31692,-2.16794
31.95000,-5.32519,-2.16889
32.00000,-5.33345,-2.17072
32.05000,-5.34185,-2.16963
32.10000,-5.35012,-2.17190
32.15000,-5.35839,-2.17221
32.20000,-5.36692,-2.17364
32.25000,-5.37545,-2.17324
32.30000,-5.38372,-2.17674
32.35000,-5.39199,-2.17584
32.40000,-5.40039,-2.17665
32.45000,-5.40879,-2.18105
32.50000,-5.41705,-2.17841
32.55000,-5.42532,-2.18253
32.60000,-5.43385,-2.18200
32.65000,-5.44199,-2.18538
32.70000,-5.45012,-2.18268
32.75000,-5.45865,-2.18697
32.80000,-5.46705,-2.18554
32.85000,-5.47505,-2.18826
32.90000,-5.48332,-2.18862
32.95000,-5.49199,-2.19034
33.00000,-5.50012,-2.18888
33.05000,-5.50839,-2.19409
33.10000,-5.51692,-2.19317
33.15000,-5.52545,-2.19212
33.20000,-5.53385,-2.19730
33.25000,-5.54212,-2.19887
33.30000,-5.55039,-2.19751
33.35000,-5.55879,-2.20004
33.40000,-5.56705,-2.20314
33.45000,-5.57519,-2.20147
33.50000,-5.58372,-2.20555
33.55000,-5.59199,-2.20417
33.60000,-5.59999,-2.21044
33.65000,-5.60852,-2.20528
33.70000,-5.61692,-2.21225
33.75000,-5.62519,-2.21093
33.80000,-5.63359,-2.21432
33.85000,-5.64212,-2.21291
33.90000,-5.65025,-2.21934
33.95000,-5.65852,-2.21461
34.00000,-5.66719,-2.22196
34.05000,-5.67532,-2.21925
34.10000,-5.68359,-2.22456
34.15000,-5.69199,-2.22111
34.20000,-5.70039,-2.22821
34.25000,-5.70865,-2.22484
34.30000,-5.71692,-2.22863
34.35000,-5.72519,-2.22948
34.40000,-5.73359,-2.22866
34.45000,-5.74185,-2.22903
34.50000,-5.74999,-2.23729
34.55000,-5.75865,-2.23044
34.60000,-5.76705,-2.23668
34.65000,-5.77519,-2.23664
34.70000,-5.78372,-2.23890
34.75000,-5.79212,-2.23698
34.80000,-5.80025,-2.24123
34.85000,-5.80852,-2.24193
34.90000,-5.81719,-2.24103
34.95000,-5.82532,-2.24354
35.00000,-5.83345,-2.24497
35.05000,-5.84185,-2.24556
35.10000,-5.85025,-2.24734
35.15000,-5.85839,-2.24866
35.20000,-5.86679,-2.24851
35.25000,-5.87505,-2.25018
35.30000,-5.88332,-2.25412
35.35000,-5.89172,-2.24926
35.40000,-5.90012,-2.25577
35.45000,-5.90865,-2.25476
35.50000,-5.91705,-2.25760
35.55000,-5.92532,-2.25593
35.60000,-5.93359,-2.26019
35.65000,-5.94212,-2.25661
35.70000,-5.95025,-2.26077
35.75000,-5.95852,-2.25917
35.80000,-5.96719,-2.26127
35.85000,-5.97532,-2.26166
35.90000,-5.98332,-2.26706
35.95000,-5.99185,-2.26031
