Time,Extension,Load
(sec),(mm),(N)
0.00000,-0.00027,-1.02753
0.05000,-0.00133,-1.02622
0.10000,-0.00573,-1.03442
0.15000,-0.01493,-1.05162
0.20000,-0.02547,-1.08209
0.25000,-0.03547,-1.10696
0.30000,-0.04573,-1.13404
0.35000,-0.05533,-1.15571
0.40000,-0.06440,-1.17810
0.45000,-0.07360,-1.19671
0.50000,-0.08227,-1.21583
0.55000,-0.09080,-1.23383
0.60000,-0.09960,-1.25089
0.65000,-0.10813,-1.26887
0.70000,-0.11653,-1.28553
0.75000,-0.12493,-1.30113
0.80000,-0.13320,-1.31777
0.85000,-0.14160,-1.33232
0.90000,-0.14987,-1.34952
0.95000,-0.15827,-1.36354
1.00000,-0.16693,-1.37771
1.05000,-0.17520,-1.39720
1.10000,-0.18333,-1.40825
1.15000,-0.19187,-1.42531
1.20000,-0.20040,-1.43781
1.25000,-0.20853,-1.45420
1.30000,-0.21693,-1.46604
1.35000,-0.22560,-1.48377
1.40000,-0.23360,-1.49482
1.45000,-0.24187,-1.51151
1.50000,-0.25040,-1.52173
1.55000,-0.25853,-1.53871
1.60000,-0.26667,-1.54769
1.65000,-0.27507,-1.56521
1.70000,-0.28333,-1.57554
1.75000,-0.29160,-1.58969
1.80000,-0.29987,-1.60316
1.85000,-0.30840,-1.61671
1.90000,-0.31693,-1.62792
1.95000,-0.32533,-1.64267
2.00000,-0.33360,-1.65477
2.05000,-0.34200,-1.66817
2.10000,-0.35040,-1.67874
2.15000,-0.35853,-1.69493
2.20000,-0.36693,-1.70154
2.25000,-0.37547,-1.71522
2.30000,-0.38360,-1.72419
2.35000,-0.39173,-1.73829
2.40000,-0.40027,-1.74856
2.45000,-0.40853,-1.76113
2.50000,-0.41667,-1.77132
2.55000,-0.42507,-1.78143
2.60000,-0.43360,-1.79351
2.65000,-0.44173,-1.80580
2.70000,-0.45013,-1.81765
2.75000,-0.45867,-1.82793
2.80000,-0.46693,-1.84054
2.85000,-0.47533,-1.85007
2.90000,-0.48360,-1.86111
2.95000,-0.49213,-1.87451
3.00000,-0.50040,-1.88363
3.05000,-0.50867,-1.89485
3.10000,-0.51680,-1.90746
3.15000,-0.52520,-1.91732
3.20000,-0.53347,-1.92983
3.25000,-0.54173,-1.93787
3.30000,-0.55027,-1.94991
3.35000,-0.55853,-1.95990
3.40000,-0.56667,-1.97145
3.45000,-0.57533,-1.97788
3.50000,-0.58373,-1.99347
3.55000,-0.59187,-1.99850
3.60000,-0.60027,-2.00876
3.65000,-0.60893,-2.01790
3.70000,-0.61693,-2.03097
3.75000,-0.62520,-2.03846
3.80000,-0.63360,-2.04949
3.85000,-0.64200,-2.05766
3.90000,-0.65027,-2.06940
3.95000,-0.65853,-2.07867
4.00000,-0.66693,-2.09152
4.05000,-0.67520,-2.10059
4.10000,-0.68346,-2.11231
4.15000,-0.69160,-2.11794
4.20000,-0.70026,-2.13419
4.25000,-0.70853,-2.14106
4.30000,-0.71680,-2.15486
4.35000,-0.72533,-2.16141
4.40000,-0.73386,-2.17552
4.45000,-0.74186,-2.18322
4.50000,-0.75026,-2.19405
4.55000,-0.75880,-2.20464
4.60000,-0.76680,-2.21577
4.65000,-0.77506,-2.22312
4.70000,-0.78346,-2.23491
4.75000,-0.79173,-2.24305
4.80000,-0.80000,-2.25382
4.85000,-0.80840,-2.26552
4.90000,-0.81680,-2.27427
4.95000,-0.82506,-2.28527
5.00000,-0.83346,-2.29344
5.05000,-0.84173,-2.30383
5.10000,-0.85026,-2.31250
5.15000,-0.85866,-2.32513
5.20000,-0.86693,-2.33280
5.25000,-0.87533,-2.34353
5.30000,-0.88386,-2.35140
5.35000,-0.89200,-2.36291
5.40000,-0.90026,-2.37156
5.45000,-0.90866,-2.38083
5.50000,-0.91680,-2.38813
5.55000,-0.92493,-2.39749
5.60000,-0.93360,-2.40477
5.65000,-0.94186,-2.41770
5.70000,-0.95000,-2.42351
5.75000,-0.95840,-2.43240
5.80000,-0.96693,-2.43942
5.85000,-0.97506,-2.44914
5.90000,-0.98346,-2.45719
5.95000,-0.99213,-2.46861
6.00000,-1.00040,-2.47636
6.05000,-1.00866,-2.48580
6.10000,-1.01706,-2.49522
6.15000,-1.02546,-2.50349
6.20000,-1.03373,-2.51404
6.25000,-1.04200,-2.52219
6.30000,-1.05026,-2.53153
6.35000,-1.05866,-2.54031
6.40000,-1.06693,-2.55015
6.45000,-1.07506,-2.55816
6.50000,-1.08360,-2.56912
6.55000,-1.09186,-2.57703
6.60000,-1.10000,-2.58639
6.65000,-1.10866,-2.59505
6.70000,-1.11720,-2.60602
6.75000,-1.12520,-2.61345
6.80000,-1.13346,-2.62305
6.85000,-1.14213,-2.63184
6.90000,-1.15026,-2.64159
6.95000,-1.15866,-2.65007
7.00000,-1.16706,-2.65997
7.05000,-1.17533,-2.66804
7.10000,-1.18360,-2.67742
7.15000,-1.19186,-2.68445
7.20000,-1.20026,-2.69426
7.25000,-1.20866,-2.70195
7.30000,-1.21693,-2.71142
7.35000,-1.22506,-2.71872
7.40000,-1.23360,-2.72763
7.45000,-1.24200,-2.73668
7.50000,-1.25013,-2.74455
7.55000,-1.25866,-2.75343
7.60000,-1.26706,-2.76144
7.65000,-1.27520,-2.77080
7.70000,-1.28346,-2.77832
7.75000,-1.29200,-2.78604
7.80000,-1.30013,-2.79526
7.85000,-1.30840,-2.80183
7.90000,-1.31693,-2.81097
7.95000,-1.32520,-2.81911
8.00000,-1.33333,-2.82682
8.05000,-1.34173,-2.83503
8.10000,-1.35000,-2.84293
8.15000,-1.35826,-2.85046
8.20000,-1.36666,-2.85884
8.25000,-1.37520,-2.86821
8.30000,-1.38360,-2.87479
8.35000,-1.39200,-2.88448
8.40000,-1.40013,-2.89111
8.45000,-1.40866,-2.89901
8.50000,-1.41706,-2.90803
8.55000,-1.42520,-2.91496
8.60000,-1.43346,-2.92293
8.65000,-1.44213,-2.93037
8.70000,-1.45026,-2.93839
8.75000,-1.45840,-2.94532
8.80000,-1.46693,-2.95382
8.85000,-1.47506,-2.96125
8.90000,-1.48333,-2.96862
8.95000,-1.49173,-2.97638
9.00000,-1.50026,-2.98433
9.05000,-1.50853,-2.99174
9.10000,-1.51693,-3.00021
9.15000,-1.52546,-3.00815
9.20000,-1.53360,-3.01395
9.25000,-1.54200,-3.02226
9.30000,-1.55040,-3.03008
9.35000,-1.55880,-3.03755
9.40000,-1.56706,-3.04533
9.45000,-1.57546,-3.05197
9.50000,-1.58360,-3.05950
9.55000,-1.59200,-3.06686
9.60000,-1.60040,-3.07432
9.65000,-1.60853,-3.08078
9.70000,-1.61706,-3.08875
9.75000,-1.62520,-3.09565
9.80000,-1.63346,-3.10287
9.85000,-1.64200,-3.11023
9.90000,-1.65040,-3.11867
9.95000,-1.65853,-3.12401
10.00000,-1.66693,-3.13100
10.05000,-1.67560,-3.13974
10.10000,-1.68373,-3.14681
10.15000,-1.69200,-3.15215
10.20000,-1.70053,-3.16035
10.25000,-1.70880,-3.16671
10.30000,-1.71693,-3.17370
10.35000,-1.72533,-3.18040
10.40000,-1.73360,-3.18683
10.45000,-1.74186,-3.19385
10.50000,-1.75013,-3.20041
10.55000,-1.75840,-3.20610
10.60000,-1.76693,-3.21287
10.65000,-1.77520,-3.21931
10.70000,-1.78333,-3.22710
10.75000,-1.79186,-3.23206
10.80000,-1.80026,-3.23961
10.85000,-1.80840,-3.24472
10.90000,-1.81693,-3.25218
10.95000,-1.82546,-3.25806
11.00000,-1.83346,-3.26663
11.05000,-1.84173,-3.26979
11.10000,-1.85026,-3.27694
11.15000,-1.85853,-3.28177
11.20000,-1.86666,-3.28896
11.25000,-1.87506,-3.29385
11.30000,-1.88346,-3.30063
11.35000,-1.89160,-3.30508
11.40000,-1.90000,-3.31261
11.45000,-1.90840,-3.31759
11.50000,-1.91693,-3.32488
11.55000,-1.92533,-3.33039
11.60000,-1.93346,-3.33670
11.65000,-1.94186,-3.34132
11.70000,-1.95040,-3.34910
11.75000,-1.95853,-3.35493
11.80000,-1.96680,-3.35959
11.85000,-1.97546,-3.36629
11.90000,-1.98360,-3.37192
11.95000,-1.99173,-3.37738
12.00000,-2.00026,-3.38197
12.05000,-2.00840,-3.38833
12.10000,-2.01653,-3.39300
12.15000,-2.02506,-3.39838
12.20000,-2.03373,-3.40404
12.25000,-2.04200,-3.41044
12.30000,-2.05026,-3.41563
12.35000,-2.05879,-3.42142
12.40000,-2.06706,-3.42553
12.45000,-2.07533,-3.43086
12.50000,-2.08373,-3.43626
12.55000,-2.09213,-3.44056
12.60000,-2.10039,-3.44617
12.65000,-2.10866,-3.45162
12.70000,-2.11693,-3.45542
12.75000,-2.12533,-3.46160
12.80000,-2.13359,-3.46615
12.85000,-2.14173,-3.47112
12.90000,-2.15026,-3.47671
12.95000,-2.15853,-3.48245
13.00000,-2.16666,-3.48706
13.05000,-2.17519,-3.49179
13.10000,-2.18373,-3.49824
13.15000,-2.19186,-3.50230
13.20000,-2.20026,-3.50738
13.25000,-2.20879,-3.51301
13.30000,-2.21693,-3.51802
13.35000,-2.22533,-3.52301
13.40000,-2.23373,-3.52782
13.45000,-2.24186,-3.53381
13.50000,-2.25013,-3.53686
13.55000,-2.25839,-3.54284
13.60000,-2.26679,-3.54668
13.65000,-2.27519,-3.55282
13.70000,-2.28333,-3.55729
13.75000,-2.29159,-3.56254
13.80000,-2.30026,-3.56657
13.85000,-2.30853,-3.57330
13.90000,-2.31666,-3.57733
13.95000,-2.32533,-3.58228
14.00000,-2.33373,-3.58764
14.05000,-2.34186,-3.59236
14.10000,-2.35026,-3.59593
14.15000,-2.35893,-3.60150
14.20000,-2.36693,-3.60585
14.25000,-2.37519,-3.61045
14.30000,-2.38359,-3.61450
14.35000,-2.39186,-3.61922
14.40000,-2.39999,-3.62373
14.45000,-2.40853,-3.62750
14.50000,-2.41693,-3.63358
14.55000,-2.42506,-3.63706
14.60000,-2.43333,-3.64267
14.65000,-2.44173,-3.64613
14.70000,-2.45026,-3.65148
14.75000,-2.45866,-3.65588
14.80000,-2.46679,-3.66072
14.85000,-2.47533,-3.66499
14.90000,-2.48373,-3.66958
14.95000,-2.49199,-3.67450
15.00000,-2.50026,-3.67840
15.05000,-2.50879,-3.68188
15.10000,-2.51693,-3.68749
15.15000,-2.52506,-3.68938
15.20000,-2.53359,-3.69498
15.25000,-2.54186,-3.69802
15.30000,-2.54986,-3.70326
15.35000,-2.55839,-3.70626
15.40000,-2.56693,-3.71211
15.45000,-2.57506,-3.71507
15.50000,-2.58346,-3.72009
15.55000,-2.59199,-3.72374
15.60000,-2.60039,-3.72862
15.65000,-2.60866,-3.73246
15.70000,-2.61693,-3.73713
15.75000,-2.62533,-3.73995
15.80000,-2.63373,-3.74460
15.85000,-2.64213,-3.74798
15.90000,-2.65026,-3.75197
15.95000,-2.65866,-3.75496
16.00000,-2.66679,-3.75885
16.05000,-2.67493,-3.76160
16.10000,-2.68346,-3.76514
16.15000,-2.69173,-3.76940
16.20000,-2.69999,-3.77263
16.25000,-2.70866,-3.77716
16.30000,-2.71719,-3.78139
16.35000,-2.72533,-3.78504
16.40000,-2.73373,-3.78800
16.45000,-2.74226,-3.79277
16.50000,-2.75039,-3.79562
16.55000,-2.75866,-3.79881
16.60000,-2.76706,-3.80273
16.65000,-2.77533,-3.80606
16.70000,-2.78373,-3.80913
16.75000,-2.79199,-3.81165
16.80000,-2.80026,-3.81477
16.85000,-2.80866,-3.81762
16.90000,-2.81679,-3.82099
16.95000,-2.82506,-3.82360
17.00000,-2.83359,-3.82754
17.05000,-2.84186,-3.83114
17.10000,-2.85013,-3.83425
17.15000,-2.85866,-3.83704
17.20000,-2.86719,-3.84203
17.25000,-2.87519,-3.84437
17.30000,-2.88359,-3.84723
17.35000,-2.89213,-3.85062
17.40000,-2.90026,-3.85367
17.45000,-2.90853,-3.85616
17.50000,-2.91693,-3.85946
17.55000,-2.92519,-3.86206
17.60000,-2.93333,-3.86489
17.65000,-2.94173,-3.86786
17.70000,-2.95013,-3.87124
17.75000,-2.95839,-3.87316
17.80000,-2.96679,-3.87606
17.85000,-2.97506,-3.88035
17.90000,-2.98359,-3.88204
17.95000,-2.99186,-3.88695
18.00000,-3.00013,-3.88869
18.05000,-3.00853,-3.89071
18.10000,-3.01706,-3.89538
18.15000,-3.02519,-3.89769
18.20000,-3.03359,-3.89942
18.25000,-3.04213,-3.90283
18.30000,-3.05026,-3.90561
18.35000,-3.05826,-3.90718
18.40000,-3.06693,-3.91097
18.45000,-3.07533,-3.91263
18.50000,-3.08333,-3.91605
18.55000,-3.09173,-3.91707
18.60000,-3.10039,-3.92032
18.65000,-3.10853,-3.92244
18.70000,-3.11679,-3.92463
18.75000,-3.12533,-3.92694
18.80000,-3.13373,-3.92978
18.85000,-3.14199,-3.93135
18.90000,-3.15039,-3.93366
18.95000,-3.15866,-3.93590
19.00000,-3.16706,-3.93697
19.05000,-3.17533,-3.94056
19.10000,-3.18346,-3.94085
19.15000,-3.19199,-3.94362
19.20000,-3.20026,-3.94589
19.25000,-3.20839,-3.94712
19.30000,-3.21693,-3.94875
19.35000,-3.22519,-3.95156
19.40000,-3.23333,-3.95236
19.45000,-3.24199,-3.95552
19.50000,-3.25053,-3.95693
19.55000,-3.25853,-3.95929
19.60000,-3.26693,-3.96038
19.65000,-3.27559,-3.96244
19.70000,-3.28359,-3.96322
19.75000,-3.29186,-3.96302
19.80000,-3.30039,-3.96370
19.85000,-3.30866,-3.96376
19.90000,-3.31693,-3.96383
19.95000,-3.32519,-3.96380
20.00000,-3.33346,-3.96433
20.05000,-3.34186,-3.96552
20.10000,-3.34999,-3.96839
20.15000,-3.35826,-3.96901
20.20000,-3.36693,-3.97131
20.25000,-3.37533,-3.97360
20.30000,-3.38346,-3.97583
20.35000,-3.39213,-3.97737
20.40000,-3.40053,-3.98005
20.45000,-3.40852,-3.98108
20.50000,-3.41692,-3.98267
20.55000,-3.42559,-3.98401
20.60000,-3.43359,-3.98650
20.65000,-3.44186,-3.98625
20.70000,-3.45026,-3.98921
20.75000,-3.45852,-3.98937
20.80000,-3.46666,-3.99209
20.85000,-3.47506,-3.99230
20.90000,-3.48346,-3.99487
20.95000,-3.49159,-3.99533
21.00000,-3.49999,-3.99733
21.05000,-3.50839,-3.99903
21.10000,-3.51692,-4.00071
21.15000,-3.52532,-4.00260
21.20000,-3.53346,-4.00341
21.25000,-3.54199,-4.00402
21.30000,-3.55039,-4.00606
21.35000,-3.55852,-4.00711
21.40000,-3.56692,-4.00778
21.45000,-3.57546,-4.00935
21.50000,-3.58346,-4.01115
21.55000,-3.59159,-4.01150
21.60000,-3.60012,-4.01245
21.65000,-3.60852,-4.01494
21.70000,-3.61666,-4.01438
21.75000,-3.62506,-4.01590
21.80000,-3.63359,-4.01601
21.85000,-3.64159,-4.01796
21.90000,-3.65012,-4.01738
21.95000,-3.65852,-4.02044
22.00000,-3.66679,-4.01989
22.05000,-3.67506,-4.02193
22.10000,-3.68359,-4.02267
22.15000,-3.69199,-4.02345
22.20000,-3.70039,-4.02465
22.25000,-3.70866,-4.02605
22.30000,-3.71692,-4.02560
22.35000,-3.72546,-4.02765
22.40000,-3.73359,-4.02778
22.45000,-3.74186,-4.02901
22.50000,-3.75039,-4.02901
22.55000,-3.75866,-4.03077
22.60000,-3.76679,-4.03094
22.65000,-3.77532,-4.03209
22.70000,-3.78386,-4.03286
22.75000,-3.79199,-4.03486
22.80000,-3.80026,-4.03413
22.85000,-3.80892,-4.03546
22.90000,-3.81706,-4.03645
22.95000,-3.82546,-4.03689
23.00000,-3.83386,-4.03745
23.05000,-3.84199,-4.03763
23.10000,-3.85026,-4.03704
23.15000,-3.85852,-4.03874
23.20000,-3.86692,-4.03719
23.25000,-3.87532,-4.03876
23.30000,-3.88359,-4.03717
23.35000,-3.89172,-4.03827
23.40000,-3.90039,-4.03734
23.45000,-3.90866,-4.03858
23.50000,-3.91666,-4.03703
23.55000,-3.92519,-4.03779
23.60000,-3.93372,-4.03697
23.65000,-3.94172,-4.03560
23.70000,-3.95026,-4.03306
23.75000,-3.95879,-4.03284
23.80000,-3.96692,-4.03128
23.85000,-3.97519,-4.03106
23.90000,-3.98359,-4.02908
23.95000,-3.99186,-4.02922
24.00000,-3.99999,-4.02880
24.05000,-4.00839,-4.02816
24.10000,-4.01652,-4.02723
24.15000,-4.02492,-4.02820
24.20000,-4.03346,-4.02579
24.25000,-4.04172,-4.02774
24.30000,-4.05026,-4.02602
24.35000,-4.05866,-4.02579
24.40000,-4.06679,-4.02553
24.45000,-4.07519,-4.02484
24.50000,-4.08372,-4.02456
24.55000,-4.09186,-4.02528
24.60000,-4.10012,-4.02261
24.65000,-4.10866,-4.02453
24.70000,-4.11679,-4.02332
24.75000,-4.12506,-4.02259
24.80000,-4.13359,-4.02212
24.85000,-4.14186,-4.02133
24.90000,-4.14999,-4.01952
24.95000,-4.15839,-4.01797
25.00000,-4.16692,-4.01811
25.05000,-4.17519,-4.01760
25.10000,-4.18346,-4.01588
25.15000,-4.19199,-4.01539
25.20000,-4.20026,-4.01408
25.25000,-4.20866,-4.01270
25.30000,-4.21706,-4.01270
25.35000,-4.22546,-4.01142
25.40000,-4.23386,-4.01011
25.45000,-4.24199,-4.00885
25.50000,-4.25026,-4.00608
25.55000,-4.25866,-4.00509
25.60000,-4.26692,-4.00436
25.65000,-4.27506,-4.00092
25.70000,-4.28359,-4.00031
25.75000,-4.29199,-3.99794
25.80000,-4.30012,-3.99793
25.85000,-4.30866,-3.99507
25.90000,-4.31719,-3.99762
25.95000,-4.32519,-3.99318
26.00000,-4.33359,-3.99307
26.05000,-4.34226,-3.99067
26.10000,-4.35026,-3.99018
26.15000,-4.35866,-3.98825
26.20000,-4.36706,-3.98764
26.25000,-4.37546,-3.98480
26.30000,-4.38359,-3.98387
26.35000,-4.39186,-3.98315
26.40000,-4.40012,-3.97988
26.45000,-4.40852,-3.97920
26.50000,-4.41692,-3.97812
26.55000,-4.42506,-3.97585
26.60000,-4.43359,-3.97410
26.65000,-4.44186,-3.97336
26.70000,-4.44999,-3.97111
26.75000,-4.45866,-3.96987
26.80000,-4.46719,-3.96734
26.85000,-4.47519,-3.96548
26.90000,-4.48359,-3.96293
26.95000,-4.49212,-3.96105
27.00000,-4.50026,-3.95972
27.05000,-4.50839,-3.95755
27.10000,-4.51692,-3.95412
27.15000,-4.52519,-3.95300
27.20000,-4.53332,-3.94902
27.25000,-4.54172,-3.94789
27.30000,-4.54999,-3.94445
27.35000,-4.55839,-3.94096
27.40000,-4.56666,-3.93831
27.45000,-4.57506,-3.93549
27.50000,-4.58359,-3.93146
27.55000,-4.59199,-3.92994
27.60000,-4.60012,-3.92600
27.65000,-4.60852,-3.92146
27.70000,-4.61706,-3.92095
27.75000,-4.62519,-3.91685
27.80000,-4.63346,-3.91287
27.85000,-4.64199,-3.90936
27.90000,-4.65012,-3.90659
27.95000,-4.65826,-3.90035
28.00000,-4.66692,-3.89918
28.05000,-4.67506,-3.89418
28.10000,-4.68332,-3.89226
28.15000,-4.69172,-3.88596
28.20000,-4.70039,-3.88564
28.25000,-4.70866,-3.87931
28.30000,-4.71706,-3.87848
28.35000,-4.72559,-3.87310
28.40000,-4.73372,-3.86844
28.45000,-4.74199,-3.86281
28.50000,-4.75026,-3.86125
28.55000,-4.75866,-3.85549
28.60000,-4.76706,-3.85193
28.65000,-4.77532,-3.84877
28.70000,-4.78359,-3.84281
28.75000,-4.79212,-3.83806
28.80000,-4.80025,-3.83341
28.85000,-4.80839,-3.82883
28.90000,-4.81692,-3.82223
28.95000,-4.82519,-3.82023
29.00000,-4.83332,-3.81292
29.05000,-4.84185,-3.80911
29.10000,-4.85039,-3.80542
29.15000,-4.85852,-3.80001
29.20000,-4.86692,-3.79493
29.25000,-4.87559,-3.79191
29.30000,-4.88372,-3.78598
29.35000,-4.89199,-3.78160
29.40000,-4.90039,-3.77598
29.45000,-4.90865,-3.77289
29.50000,-4.91692,-3.76664
29.55000,-4.92519,-3.76218
29.60000,-4.93345,-3.75995
29.65000,-4.94185,-3.75516
29.70000,-4.94999,-3.75265
29.75000,-4.95825,-3.74798
29.80000,-4.96692,-3.74672
29.85000,-4.97532,-3.74282
29.90000,-4.98345,-3.74052
29.95000,-4.99185,-3.73708
30.00000,-5.00039,-3.73390
30.05000,-5.00839,-3.73092
30.10000,-5.01679,-3.72796
30.15000,-5.02545,-3.72473
30.20000,-5.03359,-3.72375
30.25000,-5.04172,-3.71887
30.30000,-5.05025,-3.71610
30.35000,-5.05852,-3.71298
30.40000,-5.06679,-3.71054
30.45000,-5.07505,-3.70692
30.50000,-5.08345,-3.70533
30.55000,-5.09172,-3.70152
30.60000,-5.09999,-3.70024
30.65000,-5.10839,-3.69724
30.70000,-5.11692,-3.70050
30.75000,-5.12532,-3.68972
30.80000,-5.13345,-3.69687
30.85000,-5.14199,-3.68756
30.90000,-5.15039,-3.68810
30.95000,-5.15852,-3.68583
31.00000,-5.16679,-3.68403
31.05000,-5.17545,-3.67896
31.10000,-5.18359,-3.67982
31.15000,-5.19159,-3.67634
31.20000,-5.20012,-3.67529
31.25000,-5.20852,-3.67118
31.30000,-5.21679,-3.67136
31.35000,-5.22519,-3.66612
31.40000,-5.23359,-3.66746
31.45000,-5.24172,-3.66412
31.50000,-5.25012,-3.66505
31.55000,-5.25865,-3.66266
31.60000,-5.26705,-3.66053
31.65000,-5.27532,-3.66052
31.70000,-5.28372,-3.65894
31.75000,-5.29212,-3.65805
31.80000,-5.30039,-3.65742
31.85000,-5.30865,-3.65453
31.90000,-5.31692,-3.65142
31.95000,-5.32545,-3.64839
32.00000,-5.33359,-3.64790
32.05000,-5.34172,-3.64494
32.10000,-5.35012,-3.64272
32.15000,-5.35865,-3.64095
32.20000,-5.36679,-3.64090
32.25000,-5.37532,-3.63749
32.30000,-5.38372,-3.63636
32.35000,-5.39199,-3.63633
32.40000,-5.40025,-3.63307
32.45000,-5.40892,-3.63339
32.50000,-5.41705,-3.63118
32.55000,-5.42532,-3.62909
32.60000,-5.43372,-3.62813
32.65000,-5.44199,-3.62761
32.70000,-5.45025,-3.62473
32.75000,-5.45865,-3.62356
32.80000,-5.46692,-3.62426
32.85000,-5.47532,-3.62365
32.90000,-5.48345,-3.62356
32.95000,-5.49159,-3.62211
33.00000,-5.50025,-3.62150
33.05000,-5.50852,-3.62356
33.10000,-5.51665,-3.62210
33.15000,-5.52519,-3.62475
33.20000,-5.53372,-3.62296
33.25000,-5.54185,-3.62511
33.30000,-5.55025,-3.62298
33.35000,-5.55892,-3.62645
33.40000,-5.56692,-3.62440
33.45000,-5.57505,-3.62658
33.50000,-5.58359,-3.62349
33.55000,-5.59185,-3.62661
33.60000,-5.60012,-3.62686
33.65000,-5.60839,-3.62682
33.70000,-5.61679,-3.62588
33.75000,-5.62505,-3.62675
33.80000,-5.63345,-3.62711
33.85000,-5.64185,-3.62942
33.90000,-5.65025,-3.62848
33.95000,-5.65865,-3.62946
34.00000,-5.66679,-3.62841
34.05000,-5.67532,-3.62840
34.10000,-5.68372,-3.62945
34.15000,-5.69172,-3.62965
34.20000,-5.70012,-3.62904
34.25000,-5.70879,-3.62959
34.30000,-5.71679,-3.62919
34.35000,-5.72505,-3.62799
34.40000,-5.73359,-3.62896
34.45000,-5.74185,-3.62942
34.50000,-5.74999,-3.62938
34.55000,-5.75839,-3.63039
34.60000,-5.76692,-3.62926
34.65000,-5.77505,-3.63051
34.70000,-5.78345,-3.63047
34.75000,-5.79199,-3.63466
34.80000,-5.80039,-3.63316
34.85000,-5.80879,-3.63559
34.90000,-5.81719,-3.63468
34.95000,-5.82545,-3.63745
35.00000,-5.83372,-3.63718
35.05000,-5.84199,-3.64122
35.10000,-5.85025,-3.63974
35.15000,-5.85852,-3.64282
35.20000,-5.86679,-3.64173
35.25000,-5.87505,-3.64316
35.30000,-5.88372,-3.64373
35.35000,-5.89199,-3.64789
35.40000,-5.90012,-3.64586
35.45000,-5.90865,-3.64797
35.50000,-5.91705,-3.64605
35.55000,-5.92519,-3.64831
35.60000,-5.93359,-3.64950
35.65000,-5.94212,-3.65175
35.70000,-5.95025,-3.65131
35.75000,-5.95865,-3.65202
35.80000,-5.96705,-3.65299
35.85000,-5.97532,-3.65439
35.90000,-5.98345,-3.65614
35.95000,-5.99172,-3.65668
