Time,Extension,Load
(sec),(mm),(N)
0.00000,0.00000,-0.00050
0.05000,-0.00107,-0.00029
0.10000,-0.00533,-0.00291
0.15000,-0.01440,-0.00443
0.20000,-0.02520,-0.00809
0.25000,-0.03560,-0.01274
0.30000,-0.04547,-0.01753
0.35000,-0.05480,-0.02073
0.40000,-0.06413,-0.02440
0.45000,-0.07320,-0.02852
0.50000,-0.08160,-0.03113
0.55000,-0.09053,-0.03398
0.60000,-0.09920,-0.03950
0.65000,-0.10747,-0.04109
0.70000,-0.11613,-0.04492
0.75000,-0.12493,-0.04827
0.80000,-0.13307,-0.05139
0.85000,-0.14147,-0.05464
0.90000,-0.15013,-0.05677
0.95000,-0.15827,-0.05960
1.00000,-0.16667,-0.06337
1.05000,-0.17507,-0.06764
1.10000,-0.18347,-0.06830
1.15000,-0.19160,-0.07429
1.20000,-0.20000,-0.07648
1.25000,-0.20827,-0.08013
1.30000,-0.21667,-0.08473
1.35000,-0.22493,-0.08904
1.40000,-0.23307,-0.09130
1.45000,-0.24173,-0.09686
1.50000,-0.25000,-0.09982
1.55000,-0.25813,-0.10456
1.60000,-0.26667,-0.10781
1.65000,-0.27520,-0.11374
1.70000,-0.28320,-0.11360
1.75000,-0.29160,-0.12090
1.80000,-0.30013,-0.12188
1.85000,-0.30840,-0.12652
1.90000,-0.31653,-0.13079
1.95000,-0.32507,-0.13573
2.00000,-0.33333,-0.14067
2.05000,-0.34147,-0.14454
2.10000,-0.34973,-0.14938
2.15000,-0.35813,-0.15641
2.20000,-0.36653,-0.15953
2.25000,-0.37480,-0.16662
2.30000,-0.38320,-0.17189
2.35000,-0.39160,-0.17781
2.40000,-0.40000,-0.18061
2.45000,-0.40813,-0.19015
2.50000,-0.41667,-0.19214
2.55000,-0.42520,-0.19989
2.60000,-0.43333,-0.20560
2.65000,-0.44147,-0.21153
2.70000,-0.45013,-0.21672
2.75000,-0.45827,-0.22335
2.80000,-0.46627,-0.22903
2.85000,-0.47480,-0.23400
2.90000,-0.48333,-0.24059
2.95000,-0.49133,-0.24742
3.00000,-0.49973,-0.25235
3.05000,-0.50827,-0.25800
3.10000,-0.51667,-0.26776
3.15000,-0.52493,-0.27324
3.20000,-0.53347,-0.27880
3.25000,-0.54173,-0.28720
3.30000,-0.55000,-0.29334
3.35000,-0.55840,-0.30138
3.40000,-0.56680,-0.30743
3.45000,-0.57520,-0.31594
3.50000,-0.58347,-0.32259
3.55000,-0.59160,-0.33063
3.60000,-0.60013,-0.33760
3.65000,-0.60840,-0.34685
3.70000,-0.61653,-0.35286
3.75000,-0.62507,-0.36174
3.80000,-0.63347,-0.37004
3.85000,-0.64147,-0.37839
3.90000,-0.65000,-0.38593
3.95000,-0.65853,-0.39558
4.00000,-0.66653,-0.40335
4.05000,-0.67493,-0.41154
4.10000,-0.68346,-0.42042
4.15000,-0.69173,-0.42884
4.20000,-0.70000,-0.43759
4.25000,-0.70853,-0.44600
4.30000,-0.71680,-0.45609
4.35000,-0.72506,-0.46258
4.40000,-0.73333,-0.47474
4.45000,-0.74160,-0.48118
4.50000,-0.75000,-0.49335
4.55000,-0.75826,-0.49887
4.60000,-0.76653,-0.51239
4.65000,-0.77506,-0.51931
4.70000,-0.78346,-0.52986
4.75000,-0.79146,-0.53905
4.80000,-0.80000,-0.54864
4.85000,-0.80840,-0.55755
4.90000,-0.81653,-0.56959
4.95000,-0.82493,-0.57576
5.00000,-0.83346,-0.58925
5.05000,-0.84160,-0.59511
5.10000,-0.84986,-0.60934
5.15000,-0.85826,-0.61539
5.20000,-0.86653,-0.62955
5.25000,-0.87480,-0.63578
5.30000,-0.88320,-0.64984
5.35000,-0.89133,-0.65738
5.40000,-0.89973,-0.67033
5.45000,-0.90813,-0.67881
5.50000,-0.91640,-0.69179
5.55000,-0.92493,-0.70097
5.60000,-0.93333,-0.71551
5.65000,-0.94146,-0.72248
5.70000,-0.94973,-0.73664
5.75000,-0.95826,-0.74584
5.80000,-0.96653,-0.75934
5.85000,-0.97493,-0.76828
5.90000,-0.98346,-0.78230
5.95000,-0.99160,-0.79194
6.00000,-0.99986,-0.80461
6.05000,-1.00826,-0.81363
6.10000,-1.01666,-0.82841
6.15000,-1.02466,-0.83658
6.20000,-1.03320,-0.85116
6.25000,-1.04173,-0.86116
6.30000,-1.05000,-0.87543
6.35000,-1.05826,-0.88424
6.40000,-1.06680,-0.89938
6.45000,-1.07506,-0.90898
6.50000,-1.08346,-0.92271
6.55000,-1.09186,-0.93287
6.60000,-1.10013,-0.94793
6.65000,-1.10853,-0.95626
6.70000,-1.11666,-0.97159
6.75000,-1.12480,-0.98031
6.80000,-1.13333,-0.99546
6.85000,-1.14160,-1.00528
6.90000,-1.14973,-1.01843
6.95000,-1.15840,-1.03087
7.00000,-1.16666,-1.04351
7.05000,-1.17480,-1.05329
7.10000,-1.18333,-1.06933
7.15000,-1.19186,-1.07911
7.20000,-1.20000,-1.09285
7.25000,-1.20826,-1.10356
7.30000,-1.21693,-1.11805
7.35000,-1.22493,-1.12779
7.40000,-1.23320,-1.14227
7.45000,-1.24173,-1.15267
7.50000,-1.25000,-1.16751
7.55000,-1.25826,-1.17712
7.60000,-1.26666,-1.19227
7.65000,-1.27493,-1.20252
7.70000,-1.28333,-1.21646
7.75000,-1.29160,-1.22728
7.80000,-1.29973,-1.24139
7.85000,-1.30840,-1.25172
7.90000,-1.31666,-1.26630
7.95000,-1.32480,-1.27722
8.00000,-1.33333,-1.29040
8.05000,-1.34186,-1.30119
8.10000,-1.34986,-1.31721
8.15000,-1.35826,-1.32494
8.20000,-1.36680,-1.34051
8.25000,-1.37493,-1.35177
8.30000,-1.38320,-1.36458
8.35000,-1.39160,-1.37632
8.40000,-1.39986,-1.39018
8.45000,-1.40813,-1.40062
8.50000,-1.41653,-1.41519
8.55000,-1.42480,-1.42589
8.60000,-1.43306,-1.44015
8.65000,-1.44146,-1.45177
8.70000,-1.44986,-1.46460
8.75000,-1.45826,-1.47695
8.80000,-1.46666,-1.49043
8.85000,-1.47493,-1.50340
8.90000,-1.48333,-1.51385
8.95000,-1.49173,-1.52832
9.00000,-1.49986,-1.54049
9.05000,-1.50826,-1.55099
9.10000,-1.51680,-1.56578
9.15000,-1.52493,-1.57600
9.20000,-1.53320,-1.58829
9.25000,-1.54173,-1.59911
9.30000,-1.55000,-1.60304
9.35000,-1.55813,-1.57776
9.40000,-1.56640,-1.58873
9.45000,-1.57506,-1.60360
9.50000,-1.58333,-1.61551
9.55000,-1.59160,-1.63013
9.60000,-1.60013,-1.64377
9.65000,-1.60840,-1.65522
9.70000,-1.61666,-1.66720
9.75000,-1.62493,-1.67834
9.80000,-1.63346,-1.68869
9.85000,-1.64173,-1.70010
9.90000,-1.65000,-1.71001
9.95000,-1.65826,-1.72260
10.00000,-1.66680,-1.73442
10.05000,-1.67493,-1.74747
10.10000,-1.68306,-1.75962
10.15000,-1.69173,-1.76886
10.20000,-1.70000,-1.78205
10.25000,-1.70813,-1.79159
10.30000,-1.71666,-1.80122
10.35000,-1.72520,-1.81255
10.40000,-1.73320,-1.82181
10.45000,-1.74160,-1.83221
10.50000,-1.75026,-1.84260
10.55000,-1.75840,-1.85235
10.60000,-1.76666,-1.86232
10.65000,-1.77506,-1.87209
10.70000,-1.78333,-1.88585
10.75000,-1.79160,-1.89450
10.80000,-1.79986,-1.90889
10.85000,-1.80826,-1.91740
10.90000,-1.81666,-1.92879
10.95000,-1.82493,-1.93618
11.00000,-1.83306,-1.94479
11.05000,-1.84173,-1.95358
11.10000,-1.85013,-1.95991
11.15000,-1.85826,-1.97012
11.20000,-1.86680,-1.97712
11.25000,-1.87520,-1.98864
11.30000,-1.88333,-1.99389
11.35000,-1.89160,-1.99479
11.40000,-1.90026,-2.00614
11.45000,-1.90826,-2.00799
11.50000,-1.91653,-2.01357
11.55000,-1.92493,-2.01415
11.60000,-1.93333,-2.03266
11.65000,-1.94133,-2.03454
11.70000,-1.94973,-2.05779
11.75000,-1.95813,-2.06911
11.80000,-1.96640,-2.07684
11.85000,-1.97480,-2.10889
11.90000,-1.98320,-2.10311
11.95000,-1.99160,-2.13293
12.00000,-2.00000,-2.13536
12.05000,-2.00826,-2.15657
12.10000,-2.01666,-2.16180
12.15000,-2.02520,-2.18430
12.20000,-2.03333,-2.18502
12.25000,-2.04160,-2.21149
12.30000,-2.05013,-2.20389
12.35000,-2.05826,-2.21859
12.40000,-2.06653,-2.20651
12.45000,-2.07506,-2.23432
12.50000,-2.08333,-2.22675
12.55000,-2.09133,-2.24767
12.60000,-2.09973,-2.24662
12.65000,-2.10839,-2.26421
12.70000,-2.11666,-2.25982
12.75000,-2.12493,-2.27095
12.80000,-2.13359,-2.27282
12.85000,-2.14173,-2.27905
12.90000,-2.14999,-2.27994
12.95000,-2.15839,-2.28953
13.00000,-2.16666,-2.29525
13.05000,-2.17506,-2.31083
13.10000,-2.18333,-2.32100
13.15000,-2.19159,-2.33528
13.20000,-2.20013,-2.34778
13.25000,-2.20839,-2.36237
13.30000,-2.21653,-2.37159
13.35000,-2.22506,-2.38321
13.40000,-2.23333,-2.39330
13.45000,-2.24146,-2.40318
13.50000,-2.25013,-2.41373
13.55000,-2.25853,-2.42358
13.60000,-2.26666,-2.43559
13.65000,-2.27506,-2.44316
13.70000,-2.28346,-2.45492
13.75000,-2.29159,-2.46236
13.80000,-2.29986,-2.47435
13.85000,-2.30826,-2.48141
13.90000,-2.31666,-2.49419
13.95000,-2.32493,-2.50551
14.00000,-2.33319,-2.51779
14.05000,-2.34146,-2.52870
14.10000,-2.34986,-2.54206
14.15000,-2.35813,-2.55308
14.20000,-2.36639,-2.56674
14.25000,-2.37493,-2.57570
14.30000,-2.38333,-2.59219
14.35000,-2.39133,-2.59978
14.40000,-2.39986,-2.61544
14.45000,-2.40839,-2.62155
14.50000,-2.41653,-2.63970
14.55000,-2.42506,-2.64553
14.60000,-2.43359,-2.66206
14.65000,-2.44159,-2.66972
14.70000,-2.44986,-2.68374
14.75000,-2.45826,-2.69072
14.80000,-2.46666,-2.70516
14.85000,-2.47493,-2.71267
14.90000,-2.48333,-2.72753
14.95000,-2.49159,-2.73385
15.00000,-2.49986,-2.74894
15.05000,-2.50813,-2.75393
15.10000,-2.51639,-2.77061
15.15000,-2.52493,-2.77706
15.20000,-2.53333,-2.79078
15.25000,-2.54159,-2.80019
15.30000,-2.54999,-2.81128
15.35000,-2.55853,-2.81975
15.40000,-2.56666,-2.83577
15.45000,-2.57493,-2.82837
15.50000,-2.58359,-2.84940
15.55000,-2.59173,-2.84923
15.60000,-2.59986,-2.86647
15.65000,-2.60839,-2.87335
15.70000,-2.61666,-2.89095
15.75000,-2.62466,-2.89251
15.80000,-2.63319,-2.91315
15.85000,-2.64173,-2.91723
15.90000,-2.64999,-2.93116
15.95000,-2.65826,-2.94176
16.00000,-2.66679,-2.95303
16.05000,-2.67506,-2.96111
16.10000,-2.68333,-2.97147
16.15000,-2.69173,-2.98202
16.20000,-2.70013,-2.99018
16.25000,-2.70853,-3.00143
16.30000,-2.71679,-3.00820
16.35000,-2.72493,-3.02027
16.40000,-2.73346,-3.02509
16.45000,-2.74173,-3.03746
16.50000,-2.74973,-3.04256
16.55000,-2.75826,-3.05361
16.60000,-2.76653,-3.06019
16.65000,-2.77466,-3.07115
16.70000,-2.78333,-3.07674
16.75000,-2.79173,-3.08903
16.80000,-2.79986,-3.09321
16.85000,-2.80826,-3.10342
16.90000,-2.81693,-3.10759
16.95000,-2.82506,-3.11925
17.00000,-2.83346,-3.12402
17.05000,-2.84199,-3.13609
17.10000,-2.85026,-3.13980
17.15000,-2.85839,-3.15000
17.20000,-2.86666,-3.15632
17.25000,-2.87493,-3.16522
17.30000,-2.88333,-3.17324
17.35000,-2.89159,-3.18161
17.40000,-2.89973,-3.18741
17.45000,-2.90839,-3.19519
17.50000,-2.91666,-3.20405
17.55000,-2.92493,-3.21154
17.60000,-2.93333,-3.21935
17.65000,-2.94186,-3.22643
17.70000,-2.94986,-3.23485
17.75000,-2.95813,-3.23967
17.80000,-2.96679,-3.24978
17.85000,-2.97493,-3.25631
17.90000,-2.98319,-3.26527
17.95000,-2.99159,-3.26957
18.00000,-2.99999,-3.28178
18.05000,-3.00813,-3.28289
18.10000,-3.01639,-3.29343
18.15000,-3.02479,-3.29762
18.20000,-3.03306,-3.30731
18.25000,-3.04146,-3.31151
18.30000,-3.04986,-3.32219
18.35000,-3.05826,-3.32640
18.40000,-3.06666,-3.33716
18.45000,-3.07479,-3.34042
18.50000,-3.08346,-3.34819
18.55000,-3.09186,-3.35495
18.60000,-3.09986,-3.36165
18.65000,-3.10813,-3.36918
18.70000,-3.11666,-3.37137
18.75000,-3.12493,-3.38111
18.80000,-3.13306,-3.38440
18.85000,-3.14173,-3.39488
18.90000,-3.14999,-3.39828
18.95000,-3.15813,-3.40883
19.00000,-3.16639,-3.41063
19.05000,-3.17506,-3.42144
19.10000,-3.18333,-3.42425
19.15000,-3.19159,-3.43377
19.20000,-3.20013,-3.43715
19.25000,-3.20839,-3.44618
19.30000,-3.21666,-3.44711
19.35000,-3.22506,-3.45742
19.40000,-3.23359,-3.45851
19.45000,-3.24173,-3.46990
19.50000,-3.25013,-3.47090
19.55000,-3.25826,-3.48146
19.60000,-3.26666,-3.48435
19.65000,-3.27493,-3.49333
19.70000,-3.28306,-3.49505
19.75000,-3.29173,-3.50441
19.80000,-3.29999,-3.51049
19.85000,-3.30813,-3.51458
19.90000,-3.31666,-3.52275
19.95000,-3.32519,-3.52938
20.00000,-3.33319,-3.53355
20.05000,-3.34159,-3.54036
20.10000,-3.35013,-3.54658
20.15000,-3.35839,-3.55362
20.20000,-3.36666,-3.55840
20.25000,-3.37506,-3.56682
20.30000,-3.38346,-3.57364
20.35000,-3.39159,-3.57932
20.40000,-3.39986,-3.58812
20.45000,-3.40826,-3.59343
20.50000,-3.41666,-3.60086
20.55000,-3.42493,-3.60665
20.60000,-3.43306,-3.61398
20.65000,-3.44172,-3.61849
20.70000,-3.45012,-3.62666
20.75000,-3.45812,-3.63189
20.80000,-3.46666,-3.63729
20.85000,-3.47519,-3.64390
20.90000,-3.48332,-3.64980
20.95000,-3.49159,-3.65421
21.00000,-3.50012,-3.65993
21.05000,-3.50826,-3.66580
21.10000,-3.51652,-3.66937
21.15000,-3.52492,-3.67613
21.20000,-3.53319,-3.67904
21.25000,-3.54146,-3.68516
21.30000,-3.54972,-3.68909
21.35000,-3.55812,-3.69444
21.40000,-3.56639,-3.69787
21.45000,-3.57479,-3.70536
21.50000,-3.58319,-3.70783
21.55000,-3.59172,-3.71371
21.60000,-3.60012,-3.71885
21.65000,-3.60826,-3.72254
21.70000,-3.61666,-3.72813
21.75000,-3.62506,-3.73041
21.80000,-3.63332,-3.73890
21.85000,-3.64159,-3.73957
21.90000,-3.65026,-3.74675
21.95000,-3.65839,-3.75052
22.00000,-3.66652,-3.75437
22.05000,-3.67492,-3.75769
22.10000,-3.68332,-3.76406
22.15000,-3.69132,-3.76633
22.20000,-3.69972,-3.77225
22.25000,-3.70839,-3.77568
22.30000,-3.71652,-3.78171
22.35000,-3.72479,-3.78517
22.40000,-3.73346,-3.79080
22.45000,-3.74172,-3.79523
22.50000,-3.75012,-3.79901
22.55000,-3.75839,-3.80470
22.60000,-3.76679,-3.80740
22.65000,-3.77506,-3.81341
22.70000,-3.78332,-3.81584
22.75000,-3.79146,-3.82026
22.80000,-3.79999,-3.82421
22.85000,-3.80826,-3.82915
22.90000,-3.81652,-3.83185
22.95000,-3.82506,-3.83666
23.00000,-3.83332,-3.84035
23.05000,-3.84146,-3.84373
23.10000,-3.84999,-3.84742
23.15000,-3.85866,-3.85345
23.20000,-3.86652,-3.85389
23.25000,-3.87492,-3.85951
23.30000,-3.88359,-3.85962
23.35000,-3.89172,-3.86750
23.40000,-3.90012,-3.86748
23.45000,-3.90852,-3.87174
23.50000,-3.91679,-3.87469
23.55000,-3.92492,-3.87984
23.60000,-3.93332,-3.87775
23.65000,-3.94159,-3.88669
23.70000,-3.94999,-3.88443
23.75000,-3.95826,-3.89109
23.80000,-3.96639,-3.89053
23.85000,-3.97506,-3.89559
23.90000,-3.98332,-3.89647
23.95000,-3.99159,-3.90052
24.00000,-4.00012,-3.90162
24.05000,-4.00852,-3.90457
24.10000,-4.01666,-3.90502
24.15000,-4.02492,-3.90855
24.20000,-4.03359,-3.90914
24.25000,-4.04172,-3.91344
24.30000,-4.04999,-3.91368
24.35000,-4.05826,-3.91495
24.40000,-4.06666,-3.91681
24.45000,-4.07479,-3.92154
24.50000,-4.08319,-3.91865
24.55000,-4.09146,-3.92399
24.60000,-4.09972,-3.92430
24.65000,-4.10812,-3.92572
24.70000,-4.11652,-3.92877
24.75000,-4.12492,-3.92991
24.80000,-4.13332,-3.93331
24.85000,-4.14159,-3.93278
24.90000,-4.14999,-3.93748
24.95000,-4.15839,-3.93623
25.00000,-4.16652,-3.94166
25.05000,-4.17492,-3.93979
25.10000,-4.18346,-3.94307
25.15000,-4.19159,-3.94487
25.20000,-4.19972,-3.94509
25.25000,-4.20826,-3.94538
25.30000,-4.21666,-3.94679
25.35000,-4.22479,-3.94884
25.40000,-4.23319,-3.94938
25.45000,-4.24186,-3.94934
25.50000,-4.24999,-3.95262
25.55000,-4.25826,-3.95410
25.60000,-4.26679,-3.95275
25.65000,-4.27506,-3.95742
25.70000,-4.28332,-3.95502
25.75000,-4.29172,-3.95904
25.80000,-4.30012,-3.95817
25.85000,-4.30839,-3.96234
25.90000,-4.31679,-3.96016
25.95000,-4.32492,-3.96481
26.00000,-4.33346,-3.96290
26.05000,-4.34172,-3.96778
26.10000,-4.34986,-3.96712
26.15000,-4.35839,-3.96809
26.20000,-4.36652,-3.97158
26.25000,-4.37466,-3.97199
26.30000,-4.38332,-3.97472
26.35000,-4.39186,-3.97896
26.40000,-4.39999,-3.97994
26.45000,-4.40839,-3.98138
26.50000,-4.41692,-3.98625
26.55000,-4.42492,-3.98743
26.60000,-4.43319,-3.98662
26.65000,-4.44159,-3.99399
26.70000,-4.44999,-3.99005
26.75000,-4.45812,-3.99624
26.80000,-4.46652,-3.99536
26.85000,-4.47492,-4.00065
26.90000,-4.48332,-3.99837
26.95000,-4.49146,-4.00750
27.00000,-4.49959,-4.00345
27.05000,-4.50826,-4.00984
27.10000,-4.51666,-4.01049
27.15000,-4.52479,-4.01469
27.20000,-4.53332,-4.01622
27.25000,-4.54186,-4.01884
27.30000,-4.54999,-4.02329
27.35000,-4.55826,-4.02382
27.40000,-4.56692,-4.02763
27.45000,-4.57506,-4.03094
27.50000,-4.58319,-4.03368
27.55000,-4.59159,-4.03352
27.60000,-4.59999,-4.04025
27.65000,-4.60826,-4.04064
27.70000,-4.61652,-4.04472
27.75000,-4.62492,-4.04496
27.80000,-4.63306,-4.05158
27.85000,-4.64146,-4.05050
27.90000,-4.64986,-4.05790
27.95000,-4.65839,-4.05577
28.00000,-4.66666,-4.06731
28.05000,-4.67492,-4.05810
28.10000,-4.68332,-4.07333
28.15000,-4.69172,-4.06553
28.20000,-4.69986,-4.07818
28.25000,-4.70826,-4.07168
28.30000,-4.71679,-4.08211
28.35000,-4.72492,-4.08170
28.40000,-4.73319,-4.08791
28.45000,-4.74159,-4.08798
28.50000,-4.74999,-4.09391
28.55000,-4.75812,-4.09725
28.60000,-4.76639,-4.10025
28.65000,-4.77506,-4.10371
28.70000,-4.78332,-4.10884
28.75000,-4.79159,-4.11166
28.80000,-4.80012,-4.11323
28.85000,-4.80839,-4.12013
28.90000,-4.81666,-4.11875
28.95000,-4.82506,-4.12980
29.00000,-4.83332,-4.12415
29.05000,-4.84172,-4.13360
29.10000,-4.84999,-4.13332
29.15000,-4.85825,-4.14112
29.20000,-4.86679,-4.13851
29.25000,-4.87492,-4.14542
29.30000,-4.88305,-4.14757
29.35000,-4.89172,-4.14744
29.40000,-4.89999,-4.15580
29.45000,-4.90812,-4.15472
29.50000,-4.91665,-4.16095
29.55000,-4.92519,-4.16197
29.60000,-4.93332,-4.16765
29.65000,-4.94159,-4.16446
29.70000,-4.95025,-4.17890
29.75000,-4.95839,-4.16858
29.80000,-4.96665,-4.18330
29.85000,-4.97505,-4.17501
29.90000,-4.98345,-4.19149
29.95000,-4.99172,-4.17746
30.00000,-4.99999,-4.19931
30.05000,-5.00839,-4.18160
30.10000,-5.01679,-4.20625
30.15000,-5.02492,-4.19130
30.20000,-5.03305,-4.20423
30.25000,-5.04172,-4.19855
30.30000,-5.04999,-4.21112
30.35000,-5.05825,-4.20675
30.40000,-5.06665,-4.21367
30.45000,-5.07519,-4.21298
30.50000,-5.08332,-4.22264
30.55000,-5.09159,-4.21670
30.60000,-5.10012,-4.22605
30.65000,-5.10825,-4.22551
30.70000,-5.11639,-4.23017
30.75000,-5.12479,-4.22986
30.80000,-5.13319,-4.23723
30.85000,-5.14145,-4.23607
30.90000,-5.14985,-4.24161
30.95000,-5.15812,-4.24418
31.00000,-5.16639,-4.24777
31.05000,-5.17479,-4.24680
31.10000,-5.18319,-4.25642
31.15000,-5.19159,-4.25216
31.20000,-5.19999,-4.25983
31.25000,-5.20825,-4.25931
31.30000,-5.21665,-4.26535
31.35000,-5.22519,-4.25862
31.40000,-5.23319,-4.27321
31.45000,-5.24159,-4.26068
31.50000,-5.25012,-4.27474
31.55000,-5.25825,-4.26321
31.60000,-5.26639,-4.27899
31.65000,-5.27492,-4.26653
31.70000,-5.28332,-4.28279
31.75000,-5.29132,-4.27174
31.80000,-5.29972,-4.28488
31.85000,-5.30825,-4.27675
31.90000,-5.31652,-4.29092
31.95000,-5.32492,-4.28041
32.00000,-5.33332,-4.29548
32.05000,-5.34172,-4.28666
32.10000,-5.34999,-4.29501
32.15000,-5.35839,-4.29442
32.20000,-5.36665,-4.29912
32.25000,-5.37505,-4.29750
32.30000,-5.38345,-4.30182
32.35000,-5.39159,-4.30348
32.40000,-5.40012,-4.30524
32.45000,-5.40839,-4.30618
32.50000,-5.41652,-4.30986
32.55000,-5.42505,-4.30940
32.60000,-5.43332,-4.31443
32.65000,-5.44145,-4.31354
32.70000,-5.44999,-4.31609
32.75000,-5.45865,-4.32112
32.80000,-5.46665,-4.31988
32.85000,-5.47492,-4.32214
32.90000,-5.48359,-4.32116
32.95000,-5.49172,-4.32367
33.00000,-5.49999,-4.32814
33.05000,-5.50839,-4.32568
33.10000,-5.51679,-4.32873
33.15000,-5.52505,-4.33094
33.20000,-5.53332,-4.33469
33.25000,-5.54159,-4.33038
33.30000,-5.54999,-4.33955
33.35000,-5.55825,-4.33739
33.40000,-5.56652,-4.34115
33.45000,-5.57505,-4.34084
33.50000,-5.58345,-4.34793
33.55000,-5.59145,-4.34513
33.60000,-5.59999,-4.34910
33.65000,-5.60852,-4.35095
33.70000,-5.61665,-4.35303
33.75000,-5.62492,-4.35203
33.80000,-5.63345,-4.35623
33.85000,-5.64172,-4.35595
33.90000,-5.64985,-4.35905
33.95000,-5.65825,-4.36057
34.00000,-5.66652,-4.35841
34.05000,-5.67479,-4.36540
34.10000,-5.68305,-4.36225
34.15000,-5.69132,-4.36783
34.20000,-5.69972,-4.36509
34.25000,-5.70812,-4.37068
34.30000,-5.71652,-4.36986
34.35000,-5.72492,-4.37257
34.40000,-5.73332,-4.37424
34.45000,-5.74159,-4.37652
34.50000,-5.74999,-4.37454
34.55000,-5.75839,-4.37988
34.60000,-5.76652,-4.37981
34.65000,-5.77479,-4.37975
34.70000,-5.78345,-4.38459
34.75000,-5.79159,-4.38483
34.80000,-5.79985,-4.38795
34.85000,-5.80839,-4.38696
34.90000,-5.81665,-4.39498
34.95000,-5.82479,-4.38980
35.00000,-5.83319,-4.39752
35.05000,-5.84172,-4.39648
35.10000,-5.84999,-4.40172
35.15000,-5.85812,-4.40036
35.20000,-5.86679,-4.40883
35.25000,-5.87505,-4.40506
35.30000,-5.88332,-4.41282
35.35000,-5.89172,-4.41038
35.40000,-5.90012,-4.41671
35.45000,-5.90852,-4.41531
35.50000,-5.91665,-4.42110
35.55000,-5.92492,-4.42060
35.60000,-5.93345,-4.42488
35.65000,-5.94172,-4.42572
35.70000,-5.94972,-4.42952
35.75000,-5.95839,-4.42647
35.80000,-5.96665,-4.43522
35.85000,-5.97479,-4.43066
35.90000,-5.98332,-4.43793
35.95000,-5.99185,-4.43775
