Time,Extension,Load
(sec),(mm),(N)
0.00000,0.00000,-0.20209
0.05000,-0.00107,-0.20032
0.10000,-0.00533,-0.20502
0.15000,-0.01413,-0.21356
0.20000,-0.02493,-0.22803
0.25000,-0.03547,-0.24041
0.30000,-0.04533,-0.25278
0.35000,-0.05467,-0.26277
0.40000,-0.06387,-0.27425
0.45000,-0.07307,-0.28302
0.50000,-0.08160,-0.29297
0.55000,-0.09027,-0.30076
0.60000,-0.09907,-0.31134
0.65000,-0.10733,-0.31782
0.70000,-0.11573,-0.32799
0.75000,-0.12453,-0.33537
0.80000,-0.13293,-0.34592
0.85000,-0.14133,-0.35255
0.90000,-0.15000,-0.36282
0.95000,-0.15827,-0.37069
1.00000,-0.16653,-0.37986
1.05000,-0.17493,-0.38725
1.10000,-0.18333,-0.39630
1.15000,-0.19173,-0.40470
1.20000,-0.20013,-0.41377
1.25000,-0.20827,-0.42148
1.30000,-0.21680,-0.43091
1.35000,-0.22507,-0.43984
1.40000,-0.23307,-0.44793
1.45000,-0.24160,-0.45597
1.50000,-0.25000,-0.46632
1.55000,-0.25800,-0.47395
1.60000,-0.26640,-0.48282
1.65000,-0.27507,-0.49182
1.70000,-0.28333,-0.50191
1.75000,-0.29147,-0.50937
1.80000,-0.30000,-0.51876
1.85000,-0.30827,-0.52757
1.90000,-0.31653,-0.53833
1.95000,-0.32507,-0.54458
2.00000,-0.33347,-0.55588
2.05000,-0.34173,-0.56358
2.10000,-0.34987,-0.57556
2.15000,-0.35827,-0.58086
2.20000,-0.36667,-0.59352
2.25000,-0.37493,-0.59956
2.30000,-0.38307,-0.61244
2.35000,-0.39160,-0.61777
2.40000,-0.40000,-0.63111
2.45000,-0.40827,-0.63731
2.50000,-0.41653,-0.64991
2.55000,-0.42507,-0.65549
2.60000,-0.43333,-0.66899
2.65000,-0.44160,-0.67477
2.70000,-0.45013,-0.68757
2.75000,-0.45840,-0.69438
2.80000,-0.46653,-0.70691
2.85000,-0.47480,-0.71340
2.90000,-0.48320,-0.72596
2.95000,-0.49147,-0.73204
3.00000,-0.49987,-0.74489
3.05000,-0.50827,-0.75252
3.10000,-0.51640,-0.76372
3.15000,-0.52467,-0.77205
3.20000,-0.53307,-0.78340
3.25000,-0.54160,-0.79247
3.30000,-0.55000,-0.80268
3.35000,-0.55827,-0.81271
3.40000,-0.56653,-0.82296
3.45000,-0.57507,-0.83264
3.50000,-0.58333,-0.84305
3.55000,-0.59147,-0.85224
3.60000,-0.60000,-0.86266
3.65000,-0.60827,-0.87239
3.70000,-0.61640,-0.88238
3.75000,-0.62480,-0.89213
3.80000,-0.63320,-0.90287
3.85000,-0.64120,-0.91193
3.90000,-0.64960,-0.92263
3.95000,-0.65813,-0.93277
4.00000,-0.66653,-0.94303
4.05000,-0.67480,-0.95329
4.10000,-0.68346,-0.96361
4.15000,-0.69173,-0.97422
4.20000,-0.69986,-0.98393
4.25000,-0.70826,-0.99453
4.30000,-0.71666,-1.00529
4.35000,-0.72506,-1.01494
4.40000,-0.73333,-1.02581
4.45000,-0.74160,-1.03563
4.50000,-0.75013,-1.04629
4.55000,-0.75840,-1.05658
4.60000,-0.76653,-1.06734
4.65000,-0.77493,-1.07735
4.70000,-0.78320,-1.08694
4.75000,-0.79133,-1.09726
4.80000,-0.79986,-1.10824
4.85000,-0.80840,-1.11883
4.90000,-0.81653,-1.12835
4.95000,-0.82480,-1.13882
5.00000,-0.83346,-1.14855
5.05000,-0.84160,-1.16050
5.10000,-0.84986,-1.16905
5.15000,-0.85826,-1.18004
5.20000,-0.86666,-1.18994
5.25000,-0.87493,-1.19984
5.30000,-0.88333,-1.20998
5.35000,-0.89160,-1.22102
5.40000,-0.90000,-1.22972
5.45000,-0.90826,-1.24091
5.50000,-0.91626,-1.24963
5.55000,-0.92480,-1.26059
5.60000,-0.93320,-1.26974
5.65000,-0.94146,-1.28096
5.70000,-0.94986,-1.29009
5.75000,-0.95840,-1.30166
5.80000,-0.96666,-1.31056
5.85000,-0.97480,-1.32129
5.90000,-0.98333,-1.33055
5.95000,-0.99173,-1.34281
6.00000,-0.99986,-1.35009
6.05000,-1.00826,-1.36133
6.10000,-1.01666,-1.37199
6.15000,-1.02480,-1.38129
6.20000,-1.03306,-1.39037
6.25000,-1.04160,-1.40301
6.30000,-1.04973,-1.41040
6.35000,-1.05800,-1.42286
6.40000,-1.06640,-1.43134
6.45000,-1.07493,-1.44366
6.50000,-1.08333,-1.45166
6.55000,-1.09160,-1.46406
6.60000,-1.09986,-1.47225
6.65000,-1.10853,-1.48413
6.70000,-1.11666,-1.49267
6.75000,-1.12480,-1.50342
6.80000,-1.13346,-1.51324
6.85000,-1.14173,-1.52377
6.90000,-1.14973,-1.53318
6.95000,-1.15826,-1.54317
7.00000,-1.16666,-1.55414
7.05000,-1.17466,-1.56376
7.10000,-1.18293,-1.57316
7.15000,-1.19160,-1.58302
7.20000,-1.19986,-1.59425
7.25000,-1.20813,-1.60340
7.30000,-1.21666,-1.61460
7.35000,-1.22506,-1.62477
7.40000,-1.23333,-1.63388
7.45000,-1.24173,-1.64458
7.50000,-1.25000,-1.65445
7.55000,-1.25840,-1.66470
7.60000,-1.26666,-1.67477
7.65000,-1.27466,-1.68503
7.70000,-1.28320,-1.69406
7.75000,-1.29160,-1.70557
7.80000,-1.29973,-1.71433
7.85000,-1.30813,-1.72481
7.90000,-1.31653,-1.73436
7.95000,-1.32453,-1.74479
8.00000,-1.33306,-1.75367
8.05000,-1.34173,-1.76469
8.10000,-1.34986,-1.77535
8.15000,-1.35813,-1.78459
8.20000,-1.36680,-1.79483
8.25000,-1.37493,-1.80463
8.30000,-1.38320,-1.81452
8.35000,-1.39173,-1.82496
8.40000,-1.40000,-1.83497
8.45000,-1.40826,-1.84490
8.50000,-1.41653,-1.85469
8.55000,-1.42480,-1.86474
8.60000,-1.43320,-1.87314
8.65000,-1.44160,-1.88569
8.70000,-1.44973,-1.89371
8.75000,-1.45826,-1.90381
8.80000,-1.46666,-1.91493
8.85000,-1.47480,-1.92395
8.90000,-1.48320,-1.93532
8.95000,-1.49173,-1.94304
9.00000,-1.50000,-1.95506
9.05000,-1.50826,-1.96283
9.10000,-1.51680,-1.97433
9.15000,-1.52506,-1.98255
9.20000,-1.53306,-1.99416
9.25000,-1.54146,-2.00113
9.30000,-1.55000,-2.01334
9.35000,-1.55813,-2.02072
9.40000,-1.56653,-2.03291
9.45000,-1.57493,-2.03964
9.50000,-1.58306,-2.05246
9.55000,-1.59133,-2.05847
9.60000,-1.59973,-2.07230
9.65000,-1.60826,-2.07796
9.70000,-1.61666,-2.09174
9.75000,-1.62493,-2.09864
9.80000,-1.63333,-2.11083
9.85000,-1.64186,-2.11812
9.90000,-1.65013,-2.13068
9.95000,-1.65826,-2.13745
10.00000,-1.66680,-2.14887
10.05000,-1.67493,-2.15705
10.10000,-1.68306,-2.16808
10.15000,-1.69146,-2.17532
10.20000,-1.70000,-2.18801
10.25000,-1.70800,-2.19529
10.30000,-1.71626,-2.20662
10.35000,-1.72493,-2.21381
10.40000,-1.73320,-2.22631
10.45000,-1.74146,-2.23359
10.50000,-1.74986,-2.24463
10.55000,-1.75840,-2.25362
10.60000,-1.76666,-2.26404
10.65000,-1.77506,-2.27264
10.70000,-1.78333,-2.28355
10.75000,-1.79173,-2.29185
10.80000,-1.80013,-2.30263
10.85000,-1.80813,-2.31101
10.90000,-1.81666,-2.32056
10.95000,-1.82493,-2.33013
11.00000,-1.83306,-2.33970
11.05000,-1.84160,-2.34905
11.10000,-1.85000,-2.35904
11.15000,-1.85800,-2.36800
11.20000,-1.86653,-2.37717
11.25000,-1.87506,-2.38659
11.30000,-1.88320,-2.39625
11.35000,-1.89146,-2.40489
11.40000,-1.90026,-2.41430
11.45000,-1.90840,-2.42352
11.50000,-1.91666,-2.43246
11.55000,-1.92506,-2.44195
11.60000,-1.93333,-2.45108
11.65000,-1.94160,-2.45881
11.70000,-1.94986,-2.43175
11.75000,-1.95826,-2.39705
11.80000,-1.96666,-2.41580
11.85000,-1.97493,-2.41904
11.90000,-1.98293,-2.41838
11.95000,-1.99146,-2.42735
12.00000,-2.00000,-2.43798
12.05000,-2.00813,-2.42260
12.10000,-2.01653,-2.41068
12.15000,-2.02506,-2.40586
12.20000,-2.03319,-2.32187
12.25000,-2.04146,-2.31390
12.30000,-2.05000,-2.33690
12.35000,-2.05839,-2.35150
12.40000,-2.06653,-2.36525
12.45000,-2.07493,-2.37661
12.50000,-2.08333,-2.39221
12.55000,-2.09146,-2.40303
12.60000,-2.09960,-2.41684
12.65000,-2.10813,-2.42752
12.70000,-2.11639,-2.43897
12.75000,-2.12466,-2.44818
12.80000,-2.13319,-2.45966
12.85000,-2.14173,-2.46786
12.90000,-2.14999,-2.47989
12.95000,-2.15826,-2.48998
13.00000,-2.16653,-2.50188
13.05000,-2.17506,-2.51154
13.10000,-2.18333,-2.52499
13.15000,-2.19159,-2.53440
13.20000,-2.20013,-2.54653
13.25000,-2.20839,-2.55683
13.30000,-2.21639,-2.56839
13.35000,-2.22479,-2.57587
13.40000,-2.23333,-2.58857
13.45000,-2.24133,-2.59713
13.50000,-2.24973,-2.60930
13.55000,-2.25839,-2.61866
13.60000,-2.26653,-2.62986
13.65000,-2.27493,-2.63883
13.70000,-2.28333,-2.64988
13.75000,-2.29159,-2.65858
13.80000,-2.29986,-2.66871
13.85000,-2.30826,-2.67761
13.90000,-2.31666,-2.68694
13.95000,-2.32506,-2.69509
14.00000,-2.33346,-2.70454
14.05000,-2.34146,-2.71305
14.10000,-2.35013,-2.72262
14.15000,-2.35839,-2.73154
14.20000,-2.36653,-2.74055
14.25000,-2.37506,-2.74971
14.30000,-2.38333,-2.75764
14.35000,-2.39146,-2.76715
14.40000,-2.39986,-2.77461
14.45000,-2.40853,-2.78407
14.50000,-2.41653,-2.79180
14.55000,-2.42479,-2.80054
14.60000,-2.43346,-2.80871
14.65000,-2.44173,-2.81698
14.70000,-2.44999,-2.82491
14.75000,-2.45853,-2.83342
14.80000,-2.46679,-2.84158
14.85000,-2.47493,-2.84880
14.90000,-2.48319,-2.85599
14.95000,-2.49146,-2.86357
15.00000,-2.49999,-2.87130
15.05000,-2.50826,-2.87869
15.10000,-2.51626,-2.88324
15.15000,-2.52479,-2.88816
15.20000,-2.53333,-2.89545
15.25000,-2.54146,-2.90213
15.30000,-2.54986,-2.90904
15.35000,-2.55839,-2.91717
15.40000,-2.56653,-2.92521
15.45000,-2.57479,-2.93194
15.50000,-2.58333,-2.93986
15.55000,-2.59159,-2.94715
15.60000,-2.59986,-2.95396
15.65000,-2.60813,-2.96157
15.70000,-2.61653,-2.97020
15.75000,-2.62479,-2.97722
15.80000,-2.63306,-2.98567
15.85000,-2.64146,-2.99321
15.90000,-2.64973,-3.00097
15.95000,-2.65799,-3.00897
16.00000,-2.66639,-3.01739
16.05000,-2.67493,-3.02628
16.10000,-2.68333,-3.03494
16.15000,-2.69159,-3.04451
16.20000,-2.69986,-3.05255
16.25000,-2.70839,-3.06089
16.30000,-2.71653,-3.07040
16.35000,-2.72479,-3.07805
16.40000,-2.73346,-3.08766
16.45000,-2.74173,-3.09677
16.50000,-2.74973,-3.10454
16.55000,-2.75813,-3.11236
16.60000,-2.76653,-3.12119
16.65000,-2.77466,-3.12994
16.70000,-2.78293,-3.13735
16.75000,-2.79173,-3.14762
16.80000,-2.79999,-3.15553
16.85000,-2.80839,-3.16376
16.90000,-2.81679,-3.17228
16.95000,-2.82519,-3.18085
17.00000,-2.83346,-3.18846
17.05000,-2.84173,-3.19629
17.10000,-2.85013,-3.20465
17.15000,-2.85839,-3.21338
17.20000,-2.86679,-3.22163
17.25000,-2.87479,-3.22871
17.30000,-2.88333,-3.23668
17.35000,-2.89173,-3.24480
17.40000,-2.89973,-3.25177
17.45000,-2.90813,-3.26003
17.50000,-2.91653,-3.26854
17.55000,-2.92466,-3.27565
17.60000,-2.93306,-3.28323
17.65000,-2.94173,-3.29268
17.70000,-2.94986,-3.30100
17.75000,-2.95826,-3.30769
17.80000,-2.96679,-3.31614
17.85000,-2.97506,-3.32424
17.90000,-2.98319,-3.33201
17.95000,-2.99159,-3.33955
18.00000,-2.99986,-3.34757
18.05000,-3.00799,-3.35405
18.10000,-3.01639,-3.36211
18.15000,-3.02466,-3.36954
18.20000,-3.03319,-3.37692
18.25000,-3.04146,-3.38519
18.30000,-3.04959,-3.39338
18.35000,-3.05813,-3.40070
18.40000,-3.06666,-3.40961
18.45000,-3.07479,-3.41641
18.50000,-3.08319,-3.42388
18.55000,-3.09173,-3.43055
18.60000,-3.09986,-3.43831
18.65000,-3.10813,-3.44449
18.70000,-3.11679,-3.45176
18.75000,-3.12506,-3.45875
18.80000,-3.13319,-3.46591
18.85000,-3.14146,-3.47232
18.90000,-3.14999,-3.48021
18.95000,-3.15813,-3.48586
19.00000,-3.16639,-3.49320
19.05000,-3.17493,-3.49941
19.10000,-3.18306,-3.50667
19.15000,-3.19133,-3.51345
19.20000,-3.19973,-3.52151
19.25000,-3.20826,-3.52886
19.30000,-3.21666,-3.53623
19.35000,-3.22493,-3.54196
19.40000,-3.23333,-3.54883
19.45000,-3.24186,-3.55627
19.50000,-3.24999,-3.56417
19.55000,-3.25813,-3.56975
19.60000,-3.26679,-3.57631
19.65000,-3.27506,-3.58363
19.70000,-3.28319,-3.58924
19.75000,-3.29146,-3.59599
19.80000,-3.29986,-3.60267
19.85000,-3.30799,-3.60927
19.90000,-3.31626,-3.61543
19.95000,-3.32493,-3.62172
20.00000,-3.33319,-3.62969
20.05000,-3.34146,-3.63547
20.10000,-3.34999,-3.64267
20.15000,-3.35839,-3.64900
20.20000,-3.36666,-3.65478
20.25000,-3.37506,-3.66137
20.30000,-3.38333,-3.66802
20.35000,-3.39173,-3.67365
20.40000,-3.40013,-3.68051
20.45000,-3.40826,-3.68573
20.50000,-3.41666,-3.69168
20.55000,-3.42479,-3.69762
20.60000,-3.43279,-3.70214
20.65000,-3.44146,-3.70872
20.70000,-3.44986,-3.71561
20.75000,-3.45799,-3.72108
20.80000,-3.46652,-3.72789
20.85000,-3.47519,-3.73318
20.90000,-3.48332,-3.74020
20.95000,-3.49159,-3.74469
21.00000,-3.50012,-3.75186
21.05000,-3.50839,-3.75795
21.10000,-3.51666,-3.76362
21.15000,-3.52506,-3.76954
21.20000,-3.53346,-3.77487
21.25000,-3.54159,-3.78117
21.30000,-3.54999,-3.78630
21.35000,-3.55826,-3.79197
21.40000,-3.56666,-3.79784
21.45000,-3.57492,-3.80382
21.50000,-3.58306,-3.80946
21.55000,-3.59159,-3.81434
21.60000,-3.59986,-3.82046
21.65000,-3.60812,-3.82522
21.70000,-3.61666,-3.83190
21.75000,-3.62519,-3.83611
21.80000,-3.63332,-3.84212
21.85000,-3.64159,-3.84674
21.90000,-3.65012,-3.85240
21.95000,-3.65852,-3.85897
22.00000,-3.66666,-3.86446
22.05000,-3.67492,-3.86880
22.10000,-3.68332,-3.87549
22.15000,-3.69132,-3.87922
22.20000,-3.69959,-3.88658
22.25000,-3.70812,-3.89066
22.30000,-3.71639,-3.89691
22.35000,-3.72479,-3.90143
22.40000,-3.73319,-3.90921
22.45000,-3.74159,-3.91291
22.50000,-3.74999,-3.92030
22.55000,-3.75826,-3.92544
22.60000,-3.76652,-3.93089
22.65000,-3.77519,-3.93737
22.70000,-3.78332,-3.94275
22.75000,-3.79146,-3.94917
22.80000,-3.80012,-3.95499
22.85000,-3.80826,-3.96214
22.90000,-3.81639,-3.96875
22.95000,-3.82479,-3.97439
23.00000,-3.83332,-3.98222
23.05000,-3.84132,-3.98867
23.10000,-3.84972,-3.99519
23.15000,-3.85839,-4.00202
23.20000,-3.86666,-4.00843
23.25000,-3.87479,-4.01492
23.30000,-3.88319,-4.02178
23.35000,-3.89172,-4.02723
23.40000,-3.89999,-4.03563
23.45000,-3.90839,-4.04075
23.50000,-3.91666,-4.04758
23.55000,-3.92506,-4.05299
23.60000,-3.93332,-4.05963
23.65000,-3.94146,-4.06564
23.70000,-3.95012,-4.07278
23.75000,-3.95826,-4.07819
23.80000,-3.96639,-4.08528
23.85000,-3.97492,-4.08967
23.90000,-3.98332,-4.09715
23.95000,-3.99132,-4.10131
24.00000,-3.99972,-4.10905
24.05000,-4.00839,-4.11452
24.10000,-4.01666,-4.12159
24.15000,-4.02492,-4.12649
24.20000,-4.03346,-4.13306
24.25000,-4.04159,-4.13904
24.30000,-4.04986,-4.14397
24.35000,-4.05826,-4.15007
24.40000,-4.06666,-4.15631
24.45000,-4.07492,-4.16144
24.50000,-4.08319,-4.16684
24.55000,-4.09146,-4.17206
24.60000,-4.09972,-4.17791
24.65000,-4.10812,-4.18293
24.70000,-4.11626,-4.18876
24.75000,-4.12492,-4.19355
24.80000,-4.13332,-4.20083
24.85000,-4.14159,-4.20639
24.90000,-4.14986,-4.21096
24.95000,-4.15839,-4.21705
25.00000,-4.16666,-4.22232
25.05000,-4.17492,-4.22736
25.10000,-4.18346,-4.23281
25.15000,-4.19172,-4.23854
25.20000,-4.19986,-4.24313
25.25000,-4.20812,-4.24696
25.30000,-4.21652,-4.25385
25.35000,-4.22466,-4.25742
25.40000,-4.23306,-4.26325
25.45000,-4.24146,-4.26805
25.50000,-4.24972,-4.27350
25.55000,-4.25812,-4.27844
25.60000,-4.26652,-4.28405
25.65000,-4.27492,-4.28881
25.70000,-4.28332,-4.29474
25.75000,-4.29159,-4.30015
25.80000,-4.29999,-4.30412
25.85000,-4.30839,-4.30984
25.90000,-4.31666,-4.31522
25.95000,-4.32479,-4.31947
26.00000,-4.33332,-4.32517
26.05000,-4.34159,-4.32924
26.10000,-4.34972,-4.33462
26.15000,-4.35812,-4.33835
26.20000,-4.36666,-4.34415
26.25000,-4.37466,-4.34872
26.30000,-4.38306,-4.35384
26.35000,-4.39159,-4.35817
26.40000,-4.39986,-4.36440
26.45000,-4.40812,-4.36852
26.50000,-4.41666,-4.37340
26.55000,-4.42506,-4.37882
26.60000,-4.43319,-4.38367
26.65000,-4.44159,-4.38740
26.70000,-4.44999,-4.39313
26.75000,-4.45839,-4.39710
26.80000,-4.46679,-4.40353
26.85000,-4.47479,-4.40658
26.90000,-4.48332,-4.41162
26.95000,-4.49159,-4.41684
27.00000,-4.49972,-4.42017
27.05000,-4.50826,-4.42542
27.10000,-4.51652,-4.43027
27.15000,-4.52466,-4.43452
27.20000,-4.53306,-4.43859
27.25000,-4.54172,-4.44402
27.30000,-4.54986,-4.44902
27.35000,-4.55826,-4.45373
27.40000,-4.56692,-4.45776
27.45000,-4.57519,-4.46250
27.50000,-4.58332,-4.46744
27.55000,-4.59172,-4.47097
27.60000,-4.59999,-4.47564
27.65000,-4.60826,-4.48027
27.70000,-4.61652,-4.48431
27.75000,-4.62479,-4.48912
27.80000,-4.63332,-4.49271
27.85000,-4.64159,-4.49825
27.90000,-4.64972,-4.50200
27.95000,-4.65826,-4.50654
28.00000,-4.66679,-4.51032
28.05000,-4.67492,-4.51564
28.10000,-4.68319,-4.51846
28.15000,-4.69172,-4.52338
28.20000,-4.69986,-4.52712
28.25000,-4.70812,-4.53156
28.30000,-4.71652,-4.53509
28.35000,-4.72506,-4.53996
28.40000,-4.73319,-4.54435
28.45000,-4.74145,-4.54797
28.50000,-4.74986,-4.55162
28.55000,-4.75799,-4.55538
28.60000,-4.76639,-4.55975
28.65000,-4.77479,-4.56430
28.70000,-4.78306,-4.56727
28.75000,-4.79145,-4.57204
28.80000,-4.79985,-4.57654
28.85000,-4.80826,-4.58017
28.90000,-4.81666,-4.58438
28.95000,-4.82492,-4.58811
29.00000,-4.83319,-4.59220
29.05000,-4.84172,-4.59521
29.10000,-4.84985,-4.60093
29.15000,-4.85812,-4.60339
29.20000,-4.86665,-4.60782
29.25000,-4.87506,-4.61205
29.30000,-4.88305,-4.61566
29.35000,-4.89145,-4.61927
29.40000,-4.89999,-4.62353
29.45000,-4.90799,-4.62707
29.50000,-4.91625,-4.63137
29.55000,-4.92492,-4.63609
29.60000,-4.93319,-4.63990
29.65000,-4.94145,-4.64373
29.70000,-4.94999,-4.64858
29.75000,-4.95825,-4.65177
29.80000,-4.96665,-4.65668
29.85000,-4.97519,-4.66038
29.90000,-4.98345,-4.66474
29.95000,-4.99185,-4.66883
30.00000,-5.00012,-4.67232
30.05000,-5.00812,-4.67644
30.10000,-5.01679,-4.67942
30.15000,-5.02505,-4.68457
30.20000,-5.03305,-4.68728
30.25000,-5.04159,-4.69208
30.30000,-5.04999,-4.69574
30.35000,-5.05812,-4.70009
30.40000,-5.06652,-4.70420
30.45000,-5.07519,-4.70809
30.50000,-5.08332,-4.71329
30.55000,-5.09145,-4.71596
30.60000,-5.10012,-4.72092
30.65000,-5.10839,-4.72520
30.70000,-5.11652,-4.72935
30.75000,-5.12505,-4.73336
30.80000,-5.13345,-4.73754
30.85000,-5.14172,-4.74135
30.90000,-5.14999,-4.74565
30.95000,-5.15825,-4.74904
31.00000,-5.16665,-4.75327
31.05000,-5.17492,-4.75721
31.10000,-5.18305,-4.76133
31.15000,-5.19159,-4.76387
31.20000,-5.19985,-4.76892
31.25000,-5.20799,-4.77242
31.30000,-5.21639,-4.77614
31.35000,-5.22505,-4.78020
31.40000,-5.23319,-4.78492
31.45000,-5.24145,-4.78799
31.50000,-5.24999,-4.79109
31.55000,-5.25839,-4.79659
31.60000,-5.26652,-4.79859
31.65000,-5.27492,-4.80348
31.70000,-5.28319,-4.80634
31.75000,-5.29145,-4.81096
31.80000,-5.29972,-4.81319
31.85000,-5.30825,-4.81838
31.90000,-5.31639,-4.82057
31.95000,-5.32479,-4.82498
32.00000,-5.33305,-4.82803
32.05000,-5.34159,-4.83170
32.10000,-5.34999,-4.83591
32.15000,-5.35812,-4.83928
32.20000,-5.36652,-4.84261
32.25000,-5.37505,-4.84600
32.30000,-5.38332,-4.85003
32.35000,-5.39159,-4.85279
32.40000,-5.39999,-4.85664
32.45000,-5.40825,-4.86006
32.50000,-5.41625,-4.86335
32.55000,-5.42465,-4.86544
32.60000,-5.43319,-4.87045
32.65000,-5.44132,-4.87303
32.70000,-5.44972,-4.87703
32.75000,-5.45825,-4.87959
32.80000,-5.46665,-4.88445
32.85000,-5.47492,-4.88653
32.90000,-5.48332,-4.89108
32.95000,-5.49172,-4.89310
33.00000,-5.49999,-4.89784
33.05000,-5.50825,-4.89966
33.10000,-5.51665,-4.90392
33.15000,-5.52505,-4.90657
33.20000,-5.53332,-4.90997
33.25000,-5.54145,-4.91253
33.30000,-5.54999,-4.91607
33.35000,-5.55825,-4.91957
33.40000,-5.56639,-4.92171
33.45000,-5.57479,-4.92455
33.50000,-5.58319,-4.92768
33.55000,-5.59132,-4.93079
33.60000,-5.59972,-4.93273
33.65000,-5.60852,-4.93728
33.70000,-5.61665,-4.94016
33.75000,-5.62492,-4.94313
33.80000,-5.63345,-4.94511
33.85000,-5.64172,-4.94994
33.90000,-5.65012,-4.95057
33.95000,-5.65839,-4.95543
34.00000,-5.66665,-4.95625
34.05000,-5.67492,-4.96004
34.10000,-5.68319,-4.96123
34.15000,-5.69145,-4.96532
34.20000,-5.69999,-4.96683
34.25000,-5.70812,-4.97174
34.30000,-5.71639,-4.97196
34.35000,-5.72479,-4.97637
34.40000,-5.73332,-4.97844
34.45000,-5.74145,-4.98332
34.50000,-5.74985,-4.98355
34.55000,-5.75839,-4.98800
34.60000,-5.76652,-4.99086
34.65000,-5.77492,-4.99349
34.70000,-5.78332,-4.99566
34.75000,-5.79172,-5.00036
34.80000,-5.79985,-5.00082
34.85000,-5.80825,-5.00491
34.90000,-5.81665,-5.00617
34.95000,-5.82479,-5.01038
35.00000,-5.83305,-5.01119
35.05000,-5.84145,-5.01513
35.10000,-5.84972,-5.01644
35.15000,-5.85799,-5.02006
35.20000,-5.86652,-5.02209
35.25000,-5.87492,-5.02543
35.30000,-5.88332,-5.02795
35.35000,-5.89159,-5.03132
35.40000,-5.89985,-5.03241
35.45000,-5.90839,-5.03566
35.50000,-5.91665,-5.03864
35.55000,-5.92492,-5.03984
35.60000,-5.93345,-5.04276
35.65000,-5.94172,-5.04463
35.70000,-5.94959,-5.04624
35.75000,-5.95812,-5.04735
35.80000,-5.96665,-5.05167
35.85000,-5.97465,-5.05268
35.90000,-5.98305,-5.05617
35.95000,-5.99172,-5.05740
