Time,Extension,Load
(sec),(mm),(N)
0.00000,-0.00027,-0.00260
0.05000,-0.00173,0.00224
0.10000,-0.00693,-0.00520
0.15000,-0.01587,0.00386
0.20000,-0.02640,-0.01289
0.25000,-0.03680,0.00509
0.30000,-0.04627,-0.01582
0.35000,-0.05560,-0.00284
0.40000,-0.06480,-0.01462
0.45000,-0.07373,-0.00811
0.50000,-0.08227,-0.01551
0.55000,-0.09093,-0.01034
0.60000,-0.09960,-0.01879
0.65000,-0.10800,-0.01131
0.70000,-0.11640,-0.02313
0.75000,-0.12507,-0.01247
0.80000,-0.13347,-0.02867
0.85000,-0.14160,-0.01117
0.90000,-0.15027,-0.03015
0.95000,-0.15880,-0.01793
1.00000,-0.16693,-0.02834
1.05000,-0.17533,-0.02267
1.10000,-0.18400,-0.02787
1.15000,-0.19200,-0.02802
1.20000,-0.20027,-0.03103
1.25000,-0.20880,-0.02918
1.30000,-0.21693,-0.03699
1.35000,-0.22520,-0.03078
1.40000,-0.23360,-0.04013
1.45000,-0.24187,-0.03798
1.50000,-0.25013,-0.03905
1.55000,-0.25840,-0.04314
1.60000,-0.26680,-0.04032
1.65000,-0.27547,-0.05021
1.70000,-0.28387,-0.04252
1.75000,-0.29200,-0.05596
1.80000,-0.30053,-0.04497
1.85000,-0.30880,-0.05725
1.90000,-0.31693,-0.05145
1.95000,-0.32533,-0.05959
2.00000,-0.33387,-0.06164
2.05000,-0.34187,-0.05706
2.10000,-0.35013,-0.06616
2.15000,-0.35880,-0.06313
2.20000,-0.36693,-0.06683
2.25000,-0.37507,-0.06881
2.30000,-0.38360,-0.07392
2.35000,-0.39213,-0.07106
2.40000,-0.40027,-0.07966
2.45000,-0.40880,-0.07721
2.50000,-0.41720,-0.08044
2.55000,-0.42547,-0.08167
2.60000,-0.43373,-0.08516
2.65000,-0.44213,-0.08656
2.70000,-0.45053,-0.08778
2.75000,-0.45880,-0.08999
2.80000,-0.46707,-0.09204
2.85000,-0.47547,-0.09408
2.90000,-0.48373,-0.09346
2.95000,-0.49200,-0.10116
3.00000,-0.50027,-0.09653
3.05000,-0.50880,-0.10570
3.10000,-0.51707,-0.10024
3.15000,-0.52520,-0.10638
3.20000,-0.53373,-0.10636
3.25000,-0.54227,-0.11056
3.30000,-0.55040,-0.10969
3.35000,-0.55880,-0.11634
3.40000,-0.56733,-0.11229
3.45000,-0.57547,-0.11985
3.50000,-0.58373,-0.11957
3.55000,-0.59213,-0.12156
3.60000,-0.60040,-0.12672
3.65000,-0.60867,-0.12772
3.70000,-0.61707,-0.12919
3.75000,-0.62547,-0.13664
3.80000,-0.63373,-0.13672
3.85000,-0.64200,-0.13806
3.90000,-0.65027,-0.14446
3.95000,-0.65880,-0.14441
4.00000,-0.66707,-0.14983
4.05000,-0.67533,-0.14875
4.10000,-0.68386,-0.15728
4.15000,-0.69226,-0.15376
4.20000,-0.70026,-0.16563
4.25000,-0.70880,-0.15898
4.30000,-0.71733,-0.17081
4.35000,-0.72533,-0.16978
4.40000,-0.73360,-0.17293
4.45000,-0.74200,-0.17429
4.50000,-0.75026,-0.18380
4.55000,-0.75853,-0.18026
4.60000,-0.76680,-0.18954
4.65000,-0.77520,-0.19091
4.70000,-0.78346,-0.18992
4.75000,-0.79186,-0.20113
4.80000,-0.80013,-0.19540
4.85000,-0.80880,-0.20732
4.90000,-0.81706,-0.20809
4.95000,-0.82533,-0.20953
5.00000,-0.83373,-0.21398
5.05000,-0.84226,-0.22406
5.10000,-0.85026,-0.21520
5.15000,-0.85866,-0.22960
5.20000,-0.86720,-0.22890
5.25000,-0.87520,-0.23271
5.30000,-0.88333,-0.23695
5.35000,-0.89213,-0.24265
5.40000,-0.90026,-0.24093
5.45000,-0.90840,-0.25015
5.50000,-0.91693,-0.25126
5.55000,-0.92533,-0.25656
5.60000,-0.93360,-0.25950
5.65000,-0.94200,-0.26466
5.70000,-0.95053,-0.26685
5.75000,-0.95880,-0.27515
5.80000,-0.96720,-0.27418
5.85000,-0.97546,-0.28257
5.90000,-0.98386,-0.28601
5.95000,-0.99226,-0.28709
6.00000,-1.00053,-0.29725
6.05000,-1.00880,-0.29689
6.10000,-1.01720,-0.30236
6.15000,-1.02533,-0.30892
6.20000,-1.03360,-0.31189
6.25000,-1.04213,-0.31533
6.30000,-1.05040,-0.32152
6.35000,-1.05866,-0.32546
6.40000,-1.06720,-0.32955
6.45000,-1.07560,-0.33451
6.50000,-1.08360,-0.33914
6.55000,-1.09200,-0.34341
6.60000,-1.10053,-0.34702
6.65000,-1.10866,-0.35136
6.70000,-1.11693,-0.35704
6.75000,-1.12546,-0.36015
6.80000,-1.13373,-0.36363
6.85000,-1.14200,-0.36860
6.90000,-1.15040,-0.37275
6.95000,-1.15866,-0.37479
7.00000,-1.16693,-0.38269
7.05000,-1.17520,-0.38212
7.10000,-1.18346,-0.38969
7.15000,-1.19200,-0.39285
7.20000,-1.20026,-0.39944
7.25000,-1.20853,-0.40018
7.30000,-1.21720,-0.40704
7.35000,-1.22560,-0.41045
7.40000,-1.23360,-0.41735
7.45000,-1.24200,-0.41690
7.50000,-1.25053,-0.42606
7.55000,-1.25853,-0.42636
7.60000,-1.26693,-0.43393
7.65000,-1.27546,-0.43482
7.70000,-1.28360,-0.44268
7.75000,-1.29200,-0.44115
7.80000,-1.30026,-0.45126
7.85000,-1.30853,-0.45347
7.90000,-1.31680,-0.45492
7.95000,-1.32533,-0.46238
8.00000,-1.33360,-0.46810
8.05000,-1.34213,-0.46727
8.10000,-1.35040,-0.47805
8.15000,-1.35853,-0.47691
8.20000,-1.36720,-0.48636
8.25000,-1.37546,-0.48546
8.30000,-1.38360,-0.49620
8.35000,-1.39200,-0.49470
8.40000,-1.40066,-0.50232
8.45000,-1.40866,-0.50632
8.50000,-1.41680,-0.51157
8.55000,-1.42546,-0.51393
8.60000,-1.43360,-0.52223
8.65000,-1.44173,-0.52304
8.70000,-1.45026,-0.53068
8.75000,-1.45866,-0.53244
8.80000,-1.46693,-0.54122
8.85000,-1.47533,-0.53972
8.90000,-1.48386,-0.55308
8.95000,-1.49213,-0.54956
9.00000,-1.50040,-0.56166
9.05000,-1.50880,-0.56173
9.10000,-1.51720,-0.57033
9.15000,-1.52560,-0.57359
9.20000,-1.53373,-0.57911
9.25000,-1.54213,-0.58272
9.30000,-1.55053,-0.59054
9.35000,-1.55866,-0.59187
9.40000,-1.56693,-0.59781
9.45000,-1.57546,-0.60641
9.50000,-1.58373,-0.60531
9.55000,-1.59186,-0.61511
9.60000,-1.60053,-0.61748
9.65000,-1.60893,-0.62492
9.70000,-1.61706,-0.62611
9.75000,-1.62546,-0.63759
9.80000,-1.63400,-0.63667
9.85000,-1.64213,-0.64658
9.90000,-1.65053,-0.64682
9.95000,-1.65893,-0.65882
10.00000,-1.66706,-0.65613
10.05000,-1.67533,-0.67040
10.10000,-1.68373,-0.66676
10.15000,-1.69200,-0.68067
10.20000,-1.70026,-0.67989
10.25000,-1.70866,-0.69125
10.30000,-1.71680,-0.69303
10.35000,-1.72546,-0.70159
10.40000,-1.73373,-0.70478
10.45000,-1.74200,-0.71314
10.50000,-1.75053,-0.71494
10.55000,-1.75880,-0.72329
10.60000,-1.76693,-0.72729
10.65000,-1.77533,-0.73364
10.70000,-1.78400,-0.73894
10.75000,-1.79200,-0.74451
10.80000,-1.80026,-0.74997
10.85000,-1.80880,-0.75752
10.90000,-1.81693,-0.76029
10.95000,-1.82506,-0.76925
11.00000,-1.83360,-0.77404
11.05000,-1.84186,-0.77824
11.10000,-1.85013,-0.78704
11.15000,-1.85853,-0.79152
11.20000,-1.86693,-0.79736
11.25000,-1.87533,-0.80267
11.30000,-1.88373,-0.81090
11.35000,-1.89200,-0.81330
11.40000,-1.90053,-0.82415
11.45000,-1.90880,-0.82096
11.50000,-1.91680,-0.84091
11.55000,-1.92520,-0.83264
11.60000,-1.93386,-0.84523
11.65000,-1.94200,-0.85084
11.70000,-1.95026,-0.85695
11.75000,-1.95880,-0.85648
11.80000,-1.96693,-0.87145
11.85000,-1.97506,-0.86999
11.90000,-1.98360,-0.87924
11.95000,-1.99213,-0.88294
12.00000,-2.00026,-0.89480
12.05000,-2.00880,-0.89502
12.10000,-2.01720,-0.90475
12.15000,-2.02546,-0.90899
12.20000,-2.03373,-0.91698
12.25000,-2.04213,-0.92087
12.30000,-2.05053,-0.92959
12.35000,-2.05879,-0.93201
12.40000,-2.06706,-0.94153
12.45000,-2.07546,-0.94550
12.50000,-2.08373,-0.95246
12.55000,-2.09199,-0.95610
12.60000,-2.10013,-0.96569
12.65000,-2.10879,-0.96911
12.70000,-2.11706,-0.97463
12.75000,-2.12519,-0.98198
12.80000,-2.13373,-0.98771
12.85000,-2.14213,-0.99294
12.90000,-2.15026,-1.00129
12.95000,-2.15879,-1.00569
13.00000,-2.16733,-1.01175
13.05000,-2.17546,-1.01898
13.10000,-2.18386,-1.02128
13.15000,-2.19226,-1.03176
13.20000,-2.20039,-1.03166
13.25000,-2.20866,-1.04887
13.30000,-2.21706,-1.03745
13.35000,-2.22533,-1.05876
13.40000,-2.23373,-1.05585
13.45000,-2.24199,-1.06483
13.50000,-2.25013,-1.06600
13.55000,-2.25879,-1.07741
13.60000,-2.26706,-1.07861
13.65000,-2.27519,-1.08590
13.70000,-2.28386,-1.08998
13.75000,-2.29226,-1.09799
13.80000,-2.30013,-1.09932
13.85000,-2.30866,-1.10466
13.90000,-2.31719,-1.11515
13.95000,-2.32533,-1.11298
14.00000,-2.33359,-1.12430
14.05000,-2.34199,-1.12551
14.10000,-2.35026,-1.13584
14.15000,-2.35853,-1.13502
14.20000,-2.36693,-1.14898
14.25000,-2.37519,-1.14726
14.30000,-2.38346,-1.15861
14.35000,-2.39186,-1.15810
14.40000,-2.40026,-1.16990
14.45000,-2.40866,-1.16528
14.50000,-2.41706,-1.18507
14.55000,-2.42519,-1.17319
14.60000,-2.43373,-1.19379
14.65000,-2.44213,-1.19022
14.70000,-2.45026,-1.20051
14.75000,-2.45879,-1.20234
14.80000,-2.46733,-1.21214
14.85000,-2.47533,-1.21361
14.90000,-2.48346,-1.22129
14.95000,-2.49213,-1.22628
15.00000,-2.50013,-1.23190
15.05000,-2.50839,-1.23609
15.10000,-2.51693,-1.24613
15.15000,-2.52533,-1.24504
15.20000,-2.53359,-1.25724
15.25000,-2.54199,-1.25981
15.30000,-2.55053,-1.26438
15.35000,-2.55879,-1.27293
15.40000,-2.56706,-1.27664
15.45000,-2.57533,-1.28555
15.50000,-2.58373,-1.28863
15.55000,-2.59199,-1.29669
15.60000,-2.60039,-1.30267
15.65000,-2.60879,-1.30926
15.70000,-2.61706,-1.31397
15.75000,-2.62533,-1.31942
15.80000,-2.63359,-1.32802
15.85000,-2.64213,-1.33141
15.90000,-2.65026,-1.33838
15.95000,-2.65853,-1.34383
16.00000,-2.66719,-1.35110
16.05000,-2.67559,-1.35507
16.10000,-2.68373,-1.36223
16.15000,-2.69213,-1.36840
16.20000,-2.70066,-1.37303
16.25000,-2.70879,-1.37768
16.30000,-2.71706,-1.38524
16.35000,-2.72546,-1.38993
16.40000,-2.73386,-1.39637
16.45000,-2.74213,-1.40059
16.50000,-2.75039,-1.40806
16.55000,-2.75879,-1.41255
16.60000,-2.76706,-1.41964
16.65000,-2.77533,-1.42462
16.70000,-2.78359,-1.43053
16.75000,-2.79213,-1.43712
16.80000,-2.80039,-1.44294
16.85000,-2.80853,-1.44741
16.90000,-2.81719,-1.45556
16.95000,-2.82559,-1.46080
17.00000,-2.83373,-1.46613
17.05000,-2.84213,-1.47185
17.10000,-2.85066,-1.47948
17.15000,-2.85866,-1.48284
17.20000,-2.86693,-1.48896
17.25000,-2.87546,-1.49597
17.30000,-2.88359,-1.50170
17.35000,-2.89186,-1.50657
17.40000,-2.90026,-1.51230
17.45000,-2.90853,-1.51962
17.50000,-2.91679,-1.52454
17.55000,-2.92519,-1.52999
17.60000,-2.93346,-1.53585
17.65000,-2.94199,-1.54220
17.70000,-2.95039,-1.54816
17.75000,-2.95853,-1.55309
17.80000,-2.96706,-1.55883
17.85000,-2.97559,-1.56677
17.90000,-2.98359,-1.57161
17.95000,-2.99186,-1.57612
18.00000,-3.00053,-1.58288
18.05000,-3.00853,-1.59028
18.10000,-3.01679,-1.59253
18.15000,-3.02546,-1.60081
18.20000,-3.03359,-1.60542
18.25000,-3.04186,-1.61219
18.30000,-3.05026,-1.61634
18.35000,-3.05879,-1.62302
18.40000,-3.06706,-1.62855
18.45000,-3.07546,-1.63707
18.50000,-3.08386,-1.63737
18.55000,-3.09213,-1.64714
18.60000,-3.10053,-1.65153
18.65000,-3.10879,-1.65851
18.70000,-3.11719,-1.66031
18.75000,-3.12546,-1.67136
18.80000,-3.13373,-1.67341
18.85000,-3.14213,-1.68089
18.90000,-3.15053,-1.68322
18.95000,-3.15866,-1.69502
19.00000,-3.16679,-1.69388
19.05000,-3.17546,-1.70348
19.10000,-3.18373,-1.70754
19.15000,-3.19186,-1.71525
19.20000,-3.20053,-1.71761
19.25000,-3.20893,-1.72561
19.30000,-3.21706,-1.73154
19.35000,-3.22546,-1.73661
19.40000,-3.23399,-1.74082
19.45000,-3.24213,-1.74923
19.50000,-3.25039,-1.75150
19.55000,-3.25866,-1.76095
19.60000,-3.26706,-1.76235
19.65000,-3.27546,-1.77245
19.70000,-3.28373,-1.77523
19.75000,-3.29213,-1.78192
19.80000,-3.30039,-1.78587
19.85000,-3.30866,-1.79340
19.90000,-3.31693,-1.79719
19.95000,-3.32546,-1.80276
20.00000,-3.33373,-1.80945
20.05000,-3.34186,-1.81354
20.10000,-3.35053,-1.81950
20.15000,-3.35893,-1.82565
20.20000,-3.36693,-1.83060
20.25000,-3.37533,-1.83410
20.30000,-3.38399,-1.84288
20.35000,-3.39199,-1.84499
20.40000,-3.40039,-1.85242
20.45000,-3.40879,-1.85599
20.50000,-3.41706,-1.86302
20.55000,-3.42519,-1.86558
20.60000,-3.43359,-1.87334
20.65000,-3.44186,-1.87732
20.70000,-3.45012,-1.88242
20.75000,-3.45852,-1.88837
20.80000,-3.46692,-1.89426
20.85000,-3.47546,-1.89834
20.90000,-3.48372,-1.90535
20.95000,-3.49186,-1.90920
21.00000,-3.50039,-1.91604
21.05000,-3.50892,-1.91942
21.10000,-3.51692,-1.92638
21.15000,-3.52532,-1.93029
21.20000,-3.53386,-1.93677
21.25000,-3.54186,-1.94111
21.30000,-3.55012,-1.94705
21.35000,-3.55879,-1.95090
21.40000,-3.56692,-1.95895
21.45000,-3.57506,-1.96075
21.50000,-3.58359,-1.96926
21.55000,-3.59212,-1.97198
21.60000,-3.60026,-1.97965
21.65000,-3.60866,-1.98136
21.70000,-3.61706,-1.99198
21.75000,-3.62532,-1.99281
21.80000,-3.63372,-2.00037
21.85000,-3.64199,-2.00520
21.90000,-3.65052,-2.01129
21.95000,-3.65879,-2.01462
22.00000,-3.66692,-2.02244
22.05000,-3.67532,-2.02441
22.10000,-3.68372,-2.03325
22.15000,-3.69199,-2.03506
22.20000,-3.70026,-2.04386
22.25000,-3.70879,-2.04548
22.30000,-3.71706,-2.05384
22.35000,-3.72519,-2.05631
22.40000,-3.73386,-2.06329
22.45000,-3.74226,-2.06712
22.50000,-3.75039,-2.07377
22.55000,-3.75879,-2.07712
22.60000,-3.76732,-2.08429
22.65000,-3.77546,-2.08679
22.70000,-3.78386,-2.09367
22.75000,-3.79226,-2.09828
22.80000,-3.80052,-2.10289
22.85000,-3.80879,-2.10789
22.90000,-3.81706,-2.11240
22.95000,-3.82532,-2.11790
23.00000,-3.83372,-2.12145
23.05000,-3.84186,-2.12822
23.10000,-3.85026,-2.13101
23.15000,-3.85879,-2.13694
23.20000,-3.86719,-2.14128
23.25000,-3.87532,-2.14835
23.30000,-3.88386,-2.14962
23.35000,-3.89226,-2.15843
23.40000,-3.90026,-2.15592
23.45000,-3.90866,-2.16754
23.50000,-3.91719,-2.16548
23.55000,-3.92519,-2.17696
23.60000,-3.93359,-2.17503
23.65000,-3.94212,-2.18741
23.70000,-3.95039,-2.18429
23.75000,-3.95852,-2.19408
23.80000,-3.96692,-2.19685
23.85000,-3.97506,-2.20063
23.90000,-3.98346,-2.20688
23.95000,-3.99186,-2.20814
24.00000,-4.00012,-2.21657
24.05000,-4.00866,-2.21692
24.10000,-4.01706,-2.22669
24.15000,-4.02519,-2.22654
24.20000,-4.03372,-2.23721
24.25000,-4.04212,-2.23599
24.30000,-4.05026,-2.24753
24.35000,-4.05866,-2.24334
24.40000,-4.06719,-2.25637
24.45000,-4.07519,-2.25150
24.50000,-4.08346,-2.26286
24.55000,-4.09199,-2.25920
24.60000,-4.10026,-2.26435
24.65000,-4.10839,-2.24235
24.70000,-4.11679,-2.24748
24.75000,-4.12532,-2.24938
24.80000,-4.13359,-2.26284
24.85000,-4.14199,-2.26397
24.90000,-4.15039,-2.27532
24.95000,-4.15879,-2.27720
25.00000,-4.16706,-2.28758
25.05000,-4.17546,-2.28931
25.10000,-4.18386,-2.29838
25.15000,-4.19226,-2.30102
25.20000,-4.20039,-2.31016
25.25000,-4.20866,-2.31045
25.30000,-4.21719,-2.32040
25.35000,-4.22532,-2.32113
25.40000,-4.23346,-2.32915
25.45000,-4.24212,-2.33066
25.50000,-4.25039,-2.33895
25.55000,-4.25852,-2.34060
25.60000,-4.26719,-2.34712
25.65000,-4.27559,-2.34369
25.70000,-4.28372,-2.33559
25.75000,-4.29212,-2.34329
25.80000,-4.30066,-2.35120
25.85000,-4.30879,-2.35630
25.90000,-4.31706,-2.36288
25.95000,-4.32559,-2.36755
26.00000,-4.33386,-2.37443
26.05000,-4.34212,-2.37857
26.10000,-4.35026,-2.38424
26.15000,-4.35866,-2.38891
26.20000,-4.36706,-2.39366
26.25000,-4.37532,-2.39956
26.30000,-4.38359,-2.40337
26.35000,-4.39212,-2.40893
26.40000,-4.40026,-2.41235
26.45000,-4.40839,-2.41830
26.50000,-4.41706,-2.38355
26.55000,-4.42546,-2.32797
26.60000,-4.43359,-2.34794
26.65000,-4.44199,-2.36161
26.70000,-4.45066,-2.37156
26.75000,-4.45866,-2.38160
26.80000,-4.46706,-2.38998
26.85000,-4.47546,-2.39840
26.90000,-4.48372,-2.40530
26.95000,-4.49186,-2.41274
27.00000,-4.50026,-2.41983
27.05000,-4.50852,-2.42571
27.10000,-4.51679,-2.43184
27.15000,-4.52519,-2.43845
27.20000,-4.53346,-2.44464
27.25000,-4.54199,-2.44930
27.30000,-4.55039,-2.45574
27.35000,-4.55852,-2.45999
27.40000,-4.56706,-2.41633
27.45000,-4.57546,-2.41533
27.50000,-4.58359,-2.42971
27.55000,-4.59199,-2.43647
27.60000,-4.60052,-2.44682
27.65000,-4.60866,-2.45236
27.70000,-4.61679,-2.45925
27.75000,-4.62546,-2.46466
27.80000,-4.63359,-2.47245
27.85000,-4.64172,-2.47664
27.90000,-4.65026,-2.48338
27.95000,-4.65866,-2.48879
28.00000,-4.66692,-2.49536
28.05000,-4.67532,-2.49984
28.10000,-4.68386,-2.50701
28.15000,-4.69212,-2.51184
28.20000,-4.70052,-2.51775
28.25000,-4.70866,-2.52120
28.30000,-4.71719,-2.52852
28.35000,-4.72546,-2.53109
28.40000,-4.73372,-2.53743
28.45000,-4.74212,-2.54066
28.50000,-4.75052,-2.54770
28.55000,-4.75866,-2.55146
28.60000,-4.76692,-2.55611
28.65000,-4.77546,-2.56123
28.70000,-4.78372,-2.56687
28.75000,-4.79185,-2.56915
28.80000,-4.80039,-2.57529
28.85000,-4.80892,-2.58034
28.90000,-4.81706,-2.58403
28.95000,-4.82532,-2.58929
29.00000,-4.83399,-2.59251
29.05000,-4.84212,-2.59917
29.10000,-4.85052,-2.60059
29.15000,-4.85892,-2.60818
29.20000,-4.86719,-2.60993
29.25000,-4.87532,-2.61567
29.30000,-4.88359,-2.61843
29.35000,-4.89199,-2.62373
29.40000,-4.90025,-2.62711
29.45000,-4.90852,-2.63098
29.50000,-4.91679,-2.63615
29.55000,-4.92545,-2.63952
29.60000,-4.93372,-2.64467
29.65000,-4.94185,-2.64810
29.70000,-4.95039,-2.65304
29.75000,-4.95879,-2.65667
29.80000,-4.96679,-2.66043
29.85000,-4.97519,-2.66376
29.90000,-4.98385,-2.66995
29.95000,-4.99199,-2.67036
30.00000,-5.00025,-2.67760
30.05000,-5.00865,-2.68075
30.10000,-5.01692,-2.68264
30.15000,-5.02532,-2.68795
30.20000,-5.03359,-2.69177
30.25000,-5.04199,-2.69464
30.30000,-5.05025,-2.69956
30.35000,-5.05852,-2.70187
30.40000,-5.06679,-2.70875
30.45000,-5.07532,-2.70801
30.50000,-5.08372,-2.71599
30.55000,-5.09185,-2.71881
30.60000,-5.10039,-2.72216
30.65000,-5.10879,-2.72659
30.70000,-5.11692,-2.73179
30.75000,-5.12532,-2.73275
30.80000,-5.13399,-2.73901
30.85000,-5.14199,-2.74142
30.90000,-5.15012,-2.74661
30.95000,-5.15865,-2.74789
31.00000,-5.16692,-2.75514
31.05000,-5.17505,-2.75515
31.10000,-5.18359,-2.76296
31.15000,-5.19212,-2.76352
31.20000,-5.20025,-2.77083
31.25000,-5.20865,-2.77062
31.30000,-5.21705,-2.77873
31.35000,-5.22532,-2.77855
31.40000,-5.23372,-2.78587
31.45000,-5.24199,-2.78506
31.50000,-5.25052,-2.79434
31.55000,-5.25892,-2.79440
31.60000,-5.26719,-2.80071
31.65000,-5.27545,-2.80166
31.70000,-5.28399,-2.80875
31.75000,-5.29212,-2.81009
31.80000,-5.30025,-2.81418
31.85000,-5.30865,-2.81469
31.90000,-5.31705,-2.82362
31.95000,-5.32519,-2.82218
32.00000,-5.33385,-2.82944
32.05000,-5.34225,-2.83207
32.10000,-5.35039,-2.83870
32.15000,-5.35879,-2.83954
32.20000,-5.36732,-2.84144
32.25000,-5.37545,-2.85198
32.30000,-5.38385,-2.84845
32.35000,-5.39212,-2.85846
32.40000,-5.40039,-2.85750
32.45000,-5.40879,-2.86519
32.50000,-5.41705,-2.87058
32.55000,-5.42545,-2.86575
32.60000,-5.43372,-2.87454
32.65000,-5.44185,-2.88167
32.70000,-5.45012,-2.87983
32.75000,-5.45865,-2.88851
32.80000,-5.46705,-2.88740
32.85000,-5.47532,-2.89559
32.90000,-5.48372,-2.89544
32.95000,-5.49225,-2.90216
33.00000,-5.50025,-2.90432
33.05000,-5.50879,-2.90787
33.10000,-5.51732,-2.91192
33.15000,-5.52532,-2.91492
33.20000,-5.53372,-2.91994
33.25000,-5.54199,-2.92107
33.30000,-5.55025,-2.92670
33.35000,-5.55852,-2.92713
33.40000,-5.56692,-2.93490
33.45000,-5.57532,-2.93380
33.50000,-5.58345,-2.94225
33.55000,-5.59199,-2.94121
33.60000,-5.60025,-2.95034
33.65000,-5.60879,-2.94846
33.70000,-5.61705,-2.95822
33.75000,-5.62519,-2.95651
33.80000,-5.63385,-2.96458
33.85000,-5.64212,-2.96475
33.90000,-5.65025,-2.97006
33.95000,-5.65865,-2.97326
34.00000,-5.66719,-2.97777
34.05000,-5.67519,-2.97987
34.10000,-5.68345,-2.98553
34.15000,-5.69212,-2.98627
34.20000,-5.70025,-2.99371
34.25000,-5.70852,-2.99332
34.30000,-5.71692,-3.00038
34.35000,-5.72532,-3.00193
34.40000,-5.73345,-3.00686
34.45000,-5.74199,-3.01026
34.50000,-5.75039,-3.01310
34.55000,-5.75879,-3.01914
34.60000,-5.76719,-3.02030
34.65000,-5.77545,-3.02522
34.70000,-5.78385,-3.02589
34.75000,-5.79212,-3.03187
34.80000,-5.80039,-3.03362
34.85000,-5.80879,-3.03763
34.90000,-5.81705,-3.04099
34.95000,-5.82519,-3.04576
35.00000,-5.83345,-3.04636
35.05000,-5.84212,-3.05289
35.10000,-5.85025,-3.05466
35.15000,-5.85852,-3.06000
35.20000,-5.86719,-3.06134
35.25000,-5.87559,-3.06798
35.30000,-5.88359,-3.06865
35.35000,-5.89199,-3.07325
35.40000,-5.90065,-3.07603
35.45000,-5.90879,-3.07988
35.50000,-5.91719,-3.08348
35.55000,-5.92559,-3.08760
35.60000,-5.93385,-3.08956
35.65000,-5.94212,-3.09351
35.70000,-5.95039,-3.09619
35.75000,-5.95879,-3.09888
35.80000,-5.96705,-3.10123
35.85000,-5.97532,-3.10674
35.90000,-5.98359,-3.10690
35.95000,-5.99212,-3.11155
