Time,Extension,Load
(sec),(mm),(N)
0.00000,0.00000,0.00070
0.05000,-0.00107,0.00160
0.10000,-0.00853,-0.00270
0.15000,-0.01867,-0.00001
0.20000,-0.02907,-0.00667
0.25000,-0.03853,-0.00483
0.30000,-0.04773,-0.00733
0.35000,-0.05680,-0.00460
0.40000,-0.06547,-0.01309
0.45000,-0.07400,-0.00922
0.50000,-0.08267,-0.01302
0.55000,-0.09120,-0.01297
0.60000,-0.09960,-0.01534
0.65000,-0.10800,-0.01400
0.70000,-0.11627,-0.01801
0.75000,-0.12493,-0.01219
0.80000,-0.13333,-0.02612
0.85000,-0.14160,-0.01416
0.90000,-0.15013,-0.02458
0.95000,-0.15853,-0.02299
1.00000,-0.16667,-0.02074
1.05000,-0.17520,-0.02583
1.10000,-0.18347,-0.02750
1.15000,-0.19173,-0.02679
1.20000,-0.20000,-0.02806
1.25000,-0.20840,-0.03298
1.30000,-0.21653,-0.02909
1.35000,-0.22493,-0.03455
1.40000,-0.23333,-0.03191
1.45000,-0.24147,-0.03939
1.50000,-0.24987,-0.03278
1.55000,-0.25827,-0.04258
1.60000,-0.26653,-0.03668
1.65000,-0.27507,-0.04222
1.70000,-0.28333,-0.04150
1.75000,-0.29147,-0.04935
1.80000,-0.30000,-0.04187
1.85000,-0.30853,-0.05180
1.90000,-0.31667,-0.05222
1.95000,-0.32507,-0.05019
2.00000,-0.33360,-0.05478
2.05000,-0.34160,-0.05893
2.10000,-0.34987,-0.05825
2.15000,-0.35840,-0.06319
2.20000,-0.36640,-0.05930
2.25000,-0.37467,-0.07183
2.30000,-0.38320,-0.06543
2.35000,-0.39160,-0.07103
2.40000,-0.39973,-0.07278
2.45000,-0.40840,-0.07981
2.50000,-0.41667,-0.07420
2.55000,-0.42507,-0.08625
2.60000,-0.43347,-0.07944
2.65000,-0.44173,-0.08785
2.70000,-0.45013,-0.08841
2.75000,-0.45840,-0.09492
2.80000,-0.46653,-0.08757
2.85000,-0.47507,-0.10070
2.90000,-0.48347,-0.09387
2.95000,-0.49160,-0.10553
3.00000,-0.50000,-0.10212
3.05000,-0.50840,-0.10544
3.10000,-0.51653,-0.11086
3.15000,-0.52493,-0.11173
3.20000,-0.53360,-0.11301
3.25000,-0.54187,-0.11841
3.30000,-0.55000,-0.11862
3.35000,-0.55853,-0.12373
3.40000,-0.56693,-0.12569
3.45000,-0.57493,-0.12686
3.50000,-0.58333,-0.13214
3.55000,-0.59173,-0.13526
3.60000,-0.60013,-0.13715
3.65000,-0.60840,-0.14126
3.70000,-0.61680,-0.14328
3.75000,-0.62507,-0.14853
3.80000,-0.63333,-0.15017
3.85000,-0.64160,-0.15553
3.90000,-0.65000,-0.14667
3.95000,-0.65840,-0.17381
4.00000,-0.66667,-0.16331
4.05000,-0.67493,-0.16348
4.10000,-0.68346,-0.17693
4.15000,-0.69186,-0.18075
4.20000,-0.70000,-0.17415
4.25000,-0.70840,-0.18909
4.30000,-0.71693,-0.18939
4.35000,-0.72493,-0.19277
4.40000,-0.73333,-0.19188
4.45000,-0.74186,-0.20658
4.50000,-0.74986,-0.19741
4.55000,-0.75813,-0.21184
4.60000,-0.76666,-0.20569
4.65000,-0.77493,-0.22018
4.70000,-0.78320,-0.21731
4.75000,-0.79160,-0.23023
4.80000,-0.79986,-0.22159
4.85000,-0.80840,-0.24134
4.90000,-0.81680,-0.23071
4.95000,-0.82493,-0.25252
5.00000,-0.83360,-0.23755
5.05000,-0.84186,-0.26036
5.10000,-0.84986,-0.24923
5.15000,-0.85840,-0.26880
5.20000,-0.86680,-0.25588
5.25000,-0.87480,-0.27976
5.30000,-0.88320,-0.26666
5.35000,-0.89186,-0.28474
5.40000,-0.89986,-0.27929
5.45000,-0.90813,-0.29262
5.50000,-0.91666,-0.29124
5.55000,-0.92493,-0.29935
5.60000,-0.93320,-0.30203
5.65000,-0.94173,-0.30970
5.70000,-0.95013,-0.31377
5.75000,-0.95840,-0.31395
5.80000,-0.96666,-0.32898
5.85000,-0.97506,-0.32285
5.90000,-0.98360,-0.33960
5.95000,-0.99173,-0.33090
6.00000,-0.99986,-0.35230
6.05000,-1.00853,-0.34406
6.10000,-1.01680,-0.35934
6.15000,-1.02480,-0.35766
6.20000,-1.03320,-0.36957
6.25000,-1.04173,-0.36994
6.30000,-1.04986,-0.37848
6.35000,-1.05813,-0.38414
6.40000,-1.06680,-0.38857
6.45000,-1.07520,-0.39878
6.50000,-1.08333,-0.39615
6.55000,-1.09186,-0.41164
6.60000,-1.10026,-0.41004
6.65000,-1.10840,-0.42249
6.70000,-1.11666,-0.41969
6.75000,-1.12506,-0.43516
6.80000,-1.13333,-0.43051
6.85000,-1.14160,-0.44237
6.90000,-1.15000,-0.44092
6.95000,-1.15840,-0.45172
7.00000,-1.16666,-0.45142
7.05000,-1.17493,-0.46092
7.10000,-1.18333,-0.45949
7.15000,-1.19186,-0.47380
7.20000,-1.20000,-0.47052
7.25000,-1.20840,-0.48017
7.30000,-1.21693,-0.48516
7.35000,-1.22520,-0.49060
7.40000,-1.23333,-0.49585
7.45000,-1.24186,-0.50006
7.50000,-1.25026,-0.50737
7.55000,-1.25826,-0.51237
7.60000,-1.26666,-0.51903
7.65000,-1.27520,-0.52020
7.70000,-1.28320,-0.53299
7.75000,-1.29146,-0.53158
7.80000,-1.30000,-0.54363
7.85000,-1.30813,-0.54129
7.90000,-1.31653,-0.55733
7.95000,-1.32493,-0.55516
8.00000,-1.33320,-0.56825
8.05000,-1.34160,-0.56939
8.10000,-1.35000,-0.58144
8.15000,-1.35813,-0.58039
8.20000,-1.36666,-0.59089
8.25000,-1.37506,-0.59513
8.30000,-1.38320,-0.60377
8.35000,-1.39173,-0.60785
8.40000,-1.40013,-0.61426
8.45000,-1.40826,-0.62278
8.50000,-1.41653,-0.62650
8.55000,-1.42520,-0.63553
8.60000,-1.43320,-0.63742
8.65000,-1.44146,-0.64943
8.70000,-1.45000,-0.65112
8.75000,-1.45840,-0.65984
8.80000,-1.46666,-0.66562
8.85000,-1.47520,-0.67444
8.90000,-1.48360,-0.67892
8.95000,-1.49186,-0.68554
9.00000,-1.50026,-0.69326
9.05000,-1.50853,-0.69866
9.10000,-1.51680,-0.70686
9.15000,-1.52520,-0.71187
9.20000,-1.53320,-0.72161
9.25000,-1.54186,-0.72522
9.30000,-1.55026,-0.73615
9.35000,-1.55826,-0.74064
9.40000,-1.56666,-0.75066
9.45000,-1.57520,-0.75454
9.50000,-1.58333,-0.76488
9.55000,-1.59173,-0.77052
9.60000,-1.60026,-0.77923
9.65000,-1.60840,-0.78587
9.70000,-1.61653,-0.79292
9.75000,-1.62493,-0.80240
9.80000,-1.63333,-0.80751
9.85000,-1.64160,-0.81589
9.90000,-1.65000,-0.82528
9.95000,-1.65853,-0.83193
10.00000,-1.66680,-0.84068
10.05000,-1.67506,-0.84644
10.10000,-1.68333,-0.86051
10.15000,-1.69173,-0.86081
10.20000,-1.70000,-0.87685
10.25000,-1.70826,-0.87775
10.30000,-1.71653,-0.89336
10.35000,-1.72506,-0.89416
10.40000,-1.73333,-0.91123
10.45000,-1.74173,-0.91113
10.50000,-1.75026,-0.93102
10.55000,-1.75866,-0.93037
10.60000,-1.76666,-0.94737
10.65000,-1.77506,-0.94819
10.70000,-1.78346,-0.96437
10.75000,-1.79146,-0.96497
10.80000,-1.79986,-0.98191
10.85000,-1.80853,-0.97797
10.90000,-1.81666,-1.00124
10.95000,-1.82493,-0.99671
11.00000,-1.83333,-1.01515
11.05000,-1.84160,-1.01303
11.10000,-1.84986,-1.03267
11.15000,-1.85826,-1.03060
11.20000,-1.86666,-1.04971
11.25000,-1.87506,-1.04713
11.30000,-1.88346,-1.06818
11.35000,-1.89160,-1.06493
11.40000,-1.90026,-1.08461
11.45000,-1.90853,-1.08419
11.50000,-1.91653,-1.10264
11.55000,-1.92506,-1.10247
11.60000,-1.93360,-1.11894
11.65000,-1.94160,-1.12287
11.70000,-1.94986,-1.13507
11.75000,-1.95840,-1.14172
11.80000,-1.96640,-1.15063
11.85000,-1.97480,-1.16133
11.90000,-1.98333,-1.16873
11.95000,-1.99173,-1.18021
12.00000,-2.00000,-1.18174
12.05000,-2.00840,-1.20086
12.10000,-2.01680,-1.20167
12.15000,-2.02506,-1.21762
12.20000,-2.03346,-1.21699
12.25000,-2.04173,-1.23827
12.30000,-2.05013,-1.23649
12.35000,-2.05853,-1.25330
12.40000,-2.06666,-1.25634
12.45000,-2.07520,-1.27269
12.50000,-2.08346,-1.27384
12.55000,-2.09159,-1.28624
12.60000,-2.09999,-1.29359
12.65000,-2.10839,-1.30455
12.70000,-2.11653,-1.31092
12.75000,-2.12493,-1.31882
12.80000,-2.13346,-1.33613
12.85000,-2.14173,-1.33705
12.90000,-2.14999,-1.34969
12.95000,-2.15853,-1.35828
13.00000,-2.16693,-1.36981
13.05000,-2.17506,-1.37349
13.10000,-2.18346,-1.38585
13.15000,-2.19186,-1.39285
13.20000,-2.20013,-1.40121
13.25000,-2.20839,-1.41083
13.30000,-2.21666,-1.41938
13.35000,-2.22506,-1.43301
13.40000,-2.23333,-1.43382
13.45000,-2.24159,-1.45564
13.50000,-2.24999,-1.44984
13.55000,-2.25839,-1.47548
13.60000,-2.26666,-1.46870
13.65000,-2.27493,-1.49222
13.70000,-2.28359,-1.48741
13.75000,-2.29173,-1.51193
13.80000,-2.29999,-1.50720
13.85000,-2.30839,-1.52653
13.90000,-2.31693,-1.52879
13.95000,-2.32493,-1.53449
14.00000,-2.33333,-1.51534
14.05000,-2.34186,-1.52678
14.10000,-2.34999,-1.54485
14.15000,-2.35826,-1.55461
14.20000,-2.36666,-1.56035
14.25000,-2.37493,-1.56825
14.30000,-2.38319,-1.57961
14.35000,-2.39159,-1.57922
14.40000,-2.39999,-1.59205
14.45000,-2.40839,-1.59796
14.50000,-2.41679,-1.60882
14.55000,-2.42493,-1.60987
14.60000,-2.43359,-1.62270
14.65000,-2.44186,-1.62709
14.70000,-2.44986,-1.63087
14.75000,-2.45826,-1.63604
14.80000,-2.46666,-1.64129
14.85000,-2.47479,-1.65407
14.90000,-2.48319,-1.65388
14.95000,-2.49186,-1.67186
15.00000,-2.49986,-1.67529
15.05000,-2.50813,-1.69453
15.10000,-2.51679,-1.69455
15.15000,-2.52506,-1.71509
15.20000,-2.53333,-1.71630
15.25000,-2.54173,-1.73393
15.30000,-2.55013,-1.73964
15.35000,-2.55839,-1.74941
15.40000,-2.56679,-1.75841
15.45000,-2.57506,-1.77241
15.50000,-2.58359,-1.77880
15.55000,-2.59186,-1.78546
15.60000,-2.59999,-1.80369
15.65000,-2.60839,-1.80113
15.70000,-2.61679,-1.82622
15.75000,-2.62493,-1.81552
15.80000,-2.63319,-1.84680
15.85000,-2.64173,-1.83943
15.90000,-2.64986,-1.86183
15.95000,-2.65826,-1.85816
16.00000,-2.66693,-1.88103
16.05000,-2.67506,-1.87919
16.10000,-2.68333,-1.89802
16.15000,-2.69173,-1.89635
16.20000,-2.70013,-1.91663
16.25000,-2.70839,-1.91608
16.30000,-2.71679,-1.93297
16.35000,-2.72519,-1.93597
16.40000,-2.73333,-1.95037
16.45000,-2.74159,-1.95508
16.50000,-2.74999,-1.96782
16.55000,-2.75839,-1.97664
16.60000,-2.76666,-1.98419
16.65000,-2.77493,-1.99822
16.70000,-2.78319,-1.99959
16.75000,-2.79173,-2.01713
16.80000,-2.80013,-2.01799
16.85000,-2.80826,-2.03856
16.90000,-2.81679,-2.02661
16.95000,-2.82519,-2.05844
17.00000,-2.83333,-2.04077
17.05000,-2.84186,-2.06348
17.10000,-2.85026,-2.04939
17.15000,-2.85839,-2.06864
17.20000,-2.86666,-2.05870
17.25000,-2.87519,-2.07256
17.30000,-2.88319,-2.05647
17.35000,-2.89146,-2.07815
17.40000,-2.89999,-2.07121
17.45000,-2.90826,-2.09447
17.50000,-2.91653,-2.09080
17.55000,-2.92493,-2.10611
17.60000,-2.93319,-2.11154
17.65000,-2.94173,-2.11242
17.70000,-2.94999,-2.12245
17.75000,-2.95826,-2.12788
17.80000,-2.96679,-2.13401
17.85000,-2.97506,-2.13989
17.90000,-2.98333,-2.14543
17.95000,-2.99186,-2.14863
18.00000,-3.00026,-2.14697
18.05000,-3.00813,-2.14216
18.10000,-3.01653,-2.14968
18.15000,-3.02519,-2.16108
18.20000,-3.03306,-2.16826
18.25000,-3.04133,-2.17041
18.30000,-3.04999,-2.18318
18.35000,-3.05826,-2.18538
18.40000,-3.06653,-2.18645
18.45000,-3.07506,-2.18523
18.50000,-3.08346,-2.19188
18.55000,-3.09173,-2.20354
18.60000,-3.10013,-2.21938
18.65000,-3.10839,-2.22960
18.70000,-3.11679,-2.24388
18.75000,-3.12506,-2.25183
18.80000,-3.13319,-2.26391
18.85000,-3.14173,-2.27336
18.90000,-3.15013,-2.28541
18.95000,-3.15826,-2.29346
19.00000,-3.16666,-2.30569
19.05000,-3.17506,-2.31646
19.10000,-3.18319,-2.31896
19.15000,-3.19159,-2.33815
19.20000,-3.20026,-2.34194
19.25000,-3.20853,-2.35380
19.30000,-3.21666,-2.36331
19.35000,-3.22519,-2.37300
19.40000,-3.23359,-2.37859
19.45000,-3.24173,-2.39232
19.50000,-3.25013,-2.39937
19.55000,-3.25853,-2.40869
19.60000,-3.26679,-2.41120
19.65000,-3.27506,-2.43622
19.70000,-3.28333,-2.42443
19.75000,-3.29186,-2.45067
19.80000,-3.30013,-2.44420
19.85000,-3.30826,-2.46895
19.90000,-3.31666,-2.46253
19.95000,-3.32519,-2.48551
20.00000,-3.33333,-2.48013
20.05000,-3.34159,-2.50254
20.10000,-3.35026,-2.49709
20.15000,-3.35866,-2.52115
20.20000,-3.36666,-2.51178
20.25000,-3.37519,-2.53813
20.30000,-3.38359,-2.53510
20.35000,-3.39173,-2.54833
20.40000,-3.39999,-2.55293
20.45000,-3.40852,-2.56691
20.50000,-3.41666,-2.56918
20.55000,-3.42493,-2.58265
20.60000,-3.43332,-2.58652
20.65000,-3.44146,-2.60104
20.70000,-3.44986,-2.60029
20.75000,-3.45826,-2.61582
20.80000,-3.46652,-2.62114
20.85000,-3.47492,-2.63103
20.90000,-3.48332,-2.63919
20.95000,-3.49159,-2.64481
21.00000,-3.50012,-2.65763
21.05000,-3.50839,-2.66269
21.10000,-3.51652,-2.67438
21.15000,-3.52506,-2.67603
21.20000,-3.53359,-2.68865
21.25000,-3.54146,-2.69594
21.30000,-3.54986,-2.70304
21.35000,-3.55852,-2.71206
21.40000,-3.56652,-2.71879
21.45000,-3.57479,-2.72628
21.50000,-3.58332,-2.73672
21.55000,-3.59186,-2.74395
21.60000,-3.59999,-2.75407
21.65000,-3.60839,-2.75540
21.70000,-3.61679,-2.77276
21.75000,-3.62506,-2.77213
21.80000,-3.63346,-2.78586
21.85000,-3.64172,-2.79013
21.90000,-3.65012,-2.79985
21.95000,-3.65852,-2.81128
22.00000,-3.66666,-2.80971
22.05000,-3.67519,-2.82511
22.10000,-3.68359,-2.83208
22.15000,-3.69159,-2.83988
22.20000,-3.69986,-2.84516
22.25000,-3.70839,-2.85450
22.30000,-3.71652,-2.86125
22.35000,-3.72479,-2.87333
22.40000,-3.73359,-2.87601
22.45000,-3.74186,-2.89062
22.50000,-3.74999,-2.89270
22.55000,-3.75852,-2.90724
22.60000,-3.76692,-2.91089
22.65000,-3.77506,-2.92089
22.70000,-3.78332,-2.92649
22.75000,-3.79172,-2.93966
22.80000,-3.79999,-2.94269
22.85000,-3.80826,-2.94911
22.90000,-3.81666,-2.96412
22.95000,-3.82506,-2.96921
23.00000,-3.83332,-2.97563
23.05000,-3.84159,-2.98140
23.10000,-3.84986,-2.99647
23.15000,-3.85839,-2.99459
23.20000,-3.86666,-3.01042
23.25000,-3.87492,-3.01673
23.30000,-3.88359,-3.01943
23.35000,-3.89186,-3.03461
23.40000,-3.89999,-3.04319
23.45000,-3.90839,-3.03476
23.50000,-3.91692,-3.06144
23.55000,-3.92506,-3.05869
23.60000,-3.93332,-3.07139
23.65000,-3.94186,-3.07259
23.70000,-3.94986,-3.08865
23.75000,-3.95826,-3.08685
23.80000,-3.96666,-3.10178
23.85000,-3.97492,-3.10006
23.90000,-3.98319,-3.12146
23.95000,-3.99159,-3.11551
24.00000,-3.99999,-3.13220
24.05000,-4.00852,-3.13848
24.10000,-4.01679,-3.13883
24.15000,-4.02492,-3.15509
24.20000,-4.03346,-3.15901
24.25000,-4.04172,-3.16333
24.30000,-4.04986,-3.17519
24.35000,-4.05839,-3.18213
24.40000,-4.06679,-3.17776
24.45000,-4.07492,-3.20463
24.50000,-4.08319,-3.19289
24.55000,-4.09172,-3.21946
24.60000,-4.09986,-3.20092
24.65000,-4.10799,-3.23336
24.70000,-4.11666,-3.22209
24.75000,-4.12492,-3.24351
24.80000,-4.13332,-3.23485
24.85000,-4.14172,-3.25606
24.90000,-4.15012,-3.25298
24.95000,-4.15839,-3.26791
25.00000,-4.16679,-3.26475
25.05000,-4.17506,-3.28192
25.10000,-4.18346,-3.27955
25.15000,-4.19186,-3.29531
25.20000,-4.19999,-3.29081
25.25000,-4.20839,-3.30791
25.30000,-4.21679,-3.30394
25.35000,-4.22492,-3.32346
25.40000,-4.23332,-3.31279
25.45000,-4.24172,-3.33572
25.50000,-4.24986,-3.32931
25.55000,-4.25826,-3.34664
25.60000,-4.26692,-3.34011
25.65000,-4.27519,-3.36240
25.70000,-4.28332,-3.35085
25.75000,-4.29186,-3.37130
25.80000,-4.30026,-3.36399
25.85000,-4.30839,-3.38584
25.90000,-4.31679,-3.37176
25.95000,-4.32519,-3.39993
26.00000,-4.33346,-3.38216
26.05000,-4.34159,-3.40763
26.10000,-4.34999,-3.40040
26.15000,-4.35839,-3.41995
26.20000,-4.36666,-3.40376
26.25000,-4.37492,-3.43771
26.30000,-4.38319,-3.41523
26.35000,-4.39186,-3.44407
26.40000,-4.39999,-3.43121
26.45000,-4.40826,-3.45277
26.50000,-4.41692,-3.44884
26.55000,-4.42519,-3.45663
26.60000,-4.43319,-3.46320
26.65000,-4.44159,-3.46777
26.70000,-4.45012,-3.47015
26.75000,-4.45826,-3.48351
26.80000,-4.46652,-3.47839
26.85000,-4.47506,-3.49367
26.90000,-4.48332,-3.49050
26.95000,-4.49159,-3.50349
27.00000,-4.49999,-3.50049
27.05000,-4.50812,-3.51954
27.10000,-4.51652,-3.50282
27.15000,-4.52492,-3.52901
27.20000,-4.53319,-3.52186
27.25000,-4.54159,-3.53409
27.30000,-4.55012,-3.53276
27.35000,-4.55826,-3.54710
27.40000,-4.56679,-3.54152
27.45000,-4.57519,-3.55816
27.50000,-4.58319,-3.55387
27.55000,-4.59172,-3.56271
27.60000,-4.60026,-3.57150
27.65000,-4.60812,-3.57010
27.70000,-4.61652,-3.57836
27.75000,-4.62506,-3.58115
27.80000,-4.63306,-3.59205
27.85000,-4.64132,-3.58669
27.90000,-4.64999,-3.60594
27.95000,-4.65839,-3.59493
28.00000,-4.66666,-3.61687
28.05000,-4.67506,-3.60846
28.10000,-4.68332,-3.62198
28.15000,-4.69172,-3.62247
28.20000,-4.70012,-3.63229
28.25000,-4.70839,-3.62920
28.30000,-4.71692,-3.64119
28.35000,-4.72519,-3.64381
28.40000,-4.73332,-3.64665
28.45000,-4.74172,-3.65509
28.50000,-4.75012,-3.65280
28.55000,-4.75826,-3.66605
28.60000,-4.76666,-3.66381
28.65000,-4.77506,-3.67041
28.70000,-4.78332,-3.67436
28.75000,-4.79159,-3.68053
28.80000,-4.80025,-3.68026
28.85000,-4.80852,-3.68715
28.90000,-4.81666,-3.68944
28.95000,-4.82506,-3.69498
29.00000,-4.83359,-3.69956
29.05000,-4.84172,-3.69958
29.10000,-4.84999,-3.70850
29.15000,-4.85852,-3.71160
29.20000,-4.86679,-3.71312
29.25000,-4.87506,-3.71861
29.30000,-4.88332,-3.72427
29.35000,-4.89172,-3.72556
29.40000,-4.89999,-3.73148
29.45000,-4.90825,-3.73490
29.50000,-4.91652,-3.73805
29.55000,-4.92505,-3.74834
29.60000,-4.93332,-3.74298
29.65000,-4.94159,-3.75586
29.70000,-4.95012,-3.75445
29.75000,-4.95852,-3.76236
29.80000,-4.96665,-3.76374
29.85000,-4.97505,-3.76671
29.90000,-4.98359,-3.77381
29.95000,-4.99172,-3.77706
30.00000,-4.99999,-3.77878
30.05000,-5.00839,-3.78284
30.10000,-5.01652,-3.78969
30.15000,-5.02479,-3.79007
30.20000,-5.03332,-3.79514
30.25000,-5.04145,-3.79599
30.30000,-5.04985,-3.80676
30.35000,-5.05825,-3.80169
30.40000,-5.06652,-3.81504
30.45000,-5.07519,-3.80659
30.50000,-5.08345,-3.82541
30.55000,-5.09159,-3.81536
30.60000,-5.10012,-3.82958
30.65000,-5.10839,-3.82300
30.70000,-5.11652,-3.83627
30.75000,-5.12505,-3.83266
30.80000,-5.13359,-3.84111
30.85000,-5.14159,-3.83969
30.90000,-5.14985,-3.84688
30.95000,-5.15852,-3.84805
31.00000,-5.16652,-3.85161
31.05000,-5.17479,-3.85280
31.10000,-5.18332,-3.85821
31.15000,-5.19172,-3.86047
31.20000,-5.19985,-3.86623
31.25000,-5.20839,-3.86045
31.30000,-5.21679,-3.87889
31.35000,-5.22519,-3.86828
31.40000,-5.23345,-3.88209
31.45000,-5.24172,-3.87834
31.50000,-5.25025,-3.88573
31.55000,-5.25839,-3.88619
31.60000,-5.26652,-3.89314
31.65000,-5.27519,-3.88920
31.70000,-5.28345,-3.90163
31.75000,-5.29159,-3.89676
31.80000,-5.29999,-3.90514
31.85000,-5.30839,-3.90274
31.90000,-5.31652,-3.91087
31.95000,-5.32479,-3.91162
32.00000,-5.33345,-3.91510
32.05000,-5.34185,-3.91568
32.10000,-5.34999,-3.92598
32.15000,-5.35839,-3.92137
32.20000,-5.36692,-3.92762
32.25000,-5.37505,-3.93045
32.30000,-5.38345,-3.93327
32.35000,-5.39185,-3.93461
32.40000,-5.40012,-3.93842
32.45000,-5.40839,-3.94141
32.50000,-5.41665,-3.94284
32.55000,-5.42505,-3.94547
32.60000,-5.43332,-3.94807
32.65000,-5.44159,-3.95143
32.70000,-5.44999,-3.95033
32.75000,-5.45852,-3.95850
32.80000,-5.46665,-3.95633
32.85000,-5.47492,-3.95948
32.90000,-5.48345,-3.96177
32.95000,-5.49172,-3.96640
33.00000,-5.49985,-3.96421
33.05000,-5.50839,-3.97016
33.10000,-5.51692,-3.96985
33.15000,-5.52505,-3.97552
33.20000,-5.53319,-3.97162
33.25000,-5.54172,-3.98005
33.30000,-5.54999,-3.97498
33.35000,-5.55825,-3.98410
33.40000,-5.56665,-3.97788
33.45000,-5.57492,-3.98599
33.50000,-5.58319,-3.98821
33.55000,-5.59159,-3.98430
33.60000,-5.59985,-3.99139
33.65000,-5.60839,-3.99093
33.70000,-5.61679,-3.99368
33.75000,-5.62492,-3.99236
33.80000,-5.63345,-3.99885
33.85000,-5.64185,-3.99626
33.90000,-5.64999,-4.00256
33.95000,-5.65839,-3.99780
34.00000,-5.66692,-4.00505
34.05000,-5.67492,-4.00173
34.10000,-5.68319,-4.00910
34.15000,-5.69185,-4.00168
34.20000,-5.69985,-4.01032
34.25000,-5.70799,-4.00696
34.30000,-5.71665,-4.01491
34.35000,-5.72505,-4.00320
34.40000,-5.73332,-4.02191
34.45000,-5.74159,-4.00725
34.50000,-5.75012,-4.02321
34.55000,-5.75839,-4.01247
34.60000,-5.76665,-4.02282
34.65000,-5.77492,-4.01979
34.70000,-5.78345,-4.02536
34.75000,-5.79185,-4.02246
34.80000,-5.79999,-4.02884
34.85000,-5.80839,-4.02776
34.90000,-5.81692,-4.03027
34.95000,-5.82492,-4.02944
35.00000,-5.83332,-4.02947
35.05000,-5.84172,-4.03505
35.10000,-5.84999,-4.03404
35.15000,-5.85825,-4.03243
35.20000,-5.86679,-4.03732
35.25000,-5.87519,-4.04007
35.30000,-5.88345,-4.03693
35.35000,-5.89185,-4.04064
35.40000,-5.90025,-4.04177
35.45000,-5.90852,-4.04260
35.50000,-5.91679,-4.04307
35.55000,-5.92519,-4.04497
35.60000,-5.93345,-4.04453
35.65000,-5.94172,-4.05078
35.70000,-5.95012,-4.04471
35.75000,-5.95839,-4.05003
35.80000,-5.96665,-4.04991
35.85000,-5.97479,-4.05273
35.90000,-5.98319,-4.04953
35.95000,-5.99172,-4.05347
